 Frequency [Hz] - Resonance Curve	Volatge [V] - Resonance Curve	
1001.50	0.28	
1003.00	0.28	
1004.50	0.28	
1006.00	0.28	
1007.50	0.27	
1009.00	0.27	
1010.50	0.27	
1012.00	0.27	
1013.50	0.27	
1015.00	0.27	
1016.50	0.27	
1018.00	0.27	
1019.50	0.27	
1021.00	0.27	
1022.50	0.27	
1024.00	0.27	
1025.50	0.27	
1027.00	0.27	
1028.50	0.27	
1030.00	0.27	
1031.50	0.27	
1033.00	0.27	
1034.50	0.27	
1036.00	0.27	
1037.50	0.26	
1039.00	0.26	
1040.50	0.26	
1042.00	0.26	
1043.50	0.26	
1045.00	0.26	
1046.50	0.26	
1048.00	0.26	
1049.50	0.26	
1051.00	0.26	
1052.50	0.26	
1054.00	0.26	
1055.50	0.26	
1057.00	0.26	
1058.50	0.26	
1060.00	0.26	
1061.50	0.26	
1063.00	0.26	
1064.50	0.26	
1066.00	0.26	
1067.50	0.26	
1069.00	0.25	
1070.50	0.25	
1072.00	0.25	
1073.50	0.25	
1075.00	0.25	
1076.50	0.25	
1078.00	0.25	
1079.50	0.25	
1081.00	0.25	
1082.50	0.25	
1084.00	0.25	
1085.50	0.25	
1087.00	0.25	
1088.50	0.25	
1090.00	0.25	
1091.50	0.25	
1093.00	0.25	
1094.50	0.25	
1096.00	0.25	
1097.50	0.25	
1099.00	0.24	
1100.50	0.24	
1102.00	0.24	
1103.50	0.24	
1105.00	0.24	
1106.50	0.24	
1108.00	0.24	
1109.50	0.24	
1111.00	0.24	
1112.50	0.24	
1114.00	0.24	
1115.50	0.24	
1117.00	0.24	
1118.50	0.24	
1120.00	0.24	
1121.50	0.24	
1123.00	0.24	
1124.50	0.24	
1126.00	0.24	
1127.50	0.24	
1129.00	0.23	
1130.50	0.23	
1132.00	0.23	
1133.50	0.23	
1135.00	0.23	
1136.50	0.23	
1138.00	0.23	
1139.50	0.23	
1141.00	0.23	
1142.50	0.23	
1144.00	0.23	
1145.50	0.23	
1147.00	0.23	
1148.50	0.23	
1150.00	0.23	
1151.50	0.23	
1153.00	0.23	
1154.50	0.23	
1156.00	0.23	
1157.50	0.23	
1159.00	0.22	
1160.50	0.22	
1162.00	0.22	
1163.50	0.22	
1165.00	0.22	
1166.50	0.22	
1168.00	0.22	
1169.50	0.22	
1171.00	0.22	
1172.50	0.22	
1174.00	0.22	
1175.50	0.22	
1177.00	0.22	
1178.50	0.22	
1180.00	0.22	
1181.50	0.22	
1183.00	0.22	
1184.50	0.22	
1186.00	0.22	
1187.50	0.22	
1189.00	0.22	
1190.50	0.21	
1192.00	0.21	
1193.50	0.21	
1195.00	0.21	
1196.50	0.21	
1198.00	0.21	
1199.50	0.21	
1201.00	0.21	
1202.50	0.21	
1204.00	0.21	
1205.50	0.21	
1207.00	0.21	
1208.50	0.21	
1210.00	0.21	
1211.50	0.21	
1213.00	0.21	
1214.50	0.21	
1216.00	0.21	
1217.50	0.21	
1219.00	0.21	
1220.50	0.20	
1222.00	0.20	
1223.50	0.20	
1225.00	0.20	
1226.50	0.20	
1228.00	0.20	
1229.50	0.20	
1231.00	0.20	
1232.50	0.20	
1234.00	0.20	
1235.50	0.20	
1237.00	0.20	
1238.50	0.20	
1240.00	0.20	
1241.50	0.20	
1243.00	0.20	
1244.50	0.20	
1246.00	0.20	
1247.50	0.20	
1249.00	0.20	
1250.50	0.20	
1252.00	0.19	
1253.50	0.19	
1255.00	0.19	
1256.50	0.19	
1258.00	0.19	
1259.50	0.19	
1261.00	0.19	
1262.50	0.19	
1264.00	0.19	
1265.50	0.19	
1267.00	0.19	
1268.50	0.19	
1270.00	0.19	
1271.50	0.19	
1273.00	0.19	
1274.50	0.19	
1276.00	0.19	
1277.50	0.19	
1279.00	0.19	
1280.50	0.19	
1282.00	0.19	
1283.50	0.18	
1285.00	0.18	
1286.50	0.18	
1288.00	0.18	
1289.50	0.18	
1291.00	0.18	
1292.50	0.18	
1294.00	0.18	
1295.50	0.18	
1297.00	0.18	
1298.50	0.18	
1300.00	0.18	
1301.50	0.18	
1303.00	0.18	
1304.50	0.18	
1306.00	0.18	
1307.50	0.18	
1309.00	0.18	
1310.50	0.18	
1312.00	0.18	
1313.50	0.18	
1315.00	0.17	
1316.50	0.17	
1318.00	0.17	
1319.50	0.17	
1321.00	0.17	
1322.50	0.17	
1324.00	0.17	
1325.50	0.17	
1327.00	0.17	
1328.50	0.17	
1330.00	0.17	
1331.50	0.17	
1333.00	0.17	
1334.50	0.17	
1336.00	0.17	
1337.50	0.17	
1339.00	0.17	
1340.50	0.17	
1342.00	0.17	
1343.50	0.17	
1345.00	0.17	
1346.50	0.16	
1348.00	0.16	
1349.50	0.16	
1351.00	0.16	
1352.50	0.16	
1354.00	0.16	
1355.50	0.16	
1357.00	0.16	
1358.50	0.16	
1360.00	0.16	
1361.50	0.16	
1363.00	0.16	
1364.50	0.16	
1366.00	0.16	
1367.50	0.16	
1369.00	0.16	
1370.50	0.16	
1372.00	0.16	
1373.50	0.16	
1375.00	0.16	
1376.50	0.16	
1378.00	0.15	
1379.50	0.15	
1381.00	0.15	
1382.50	0.15	
1384.00	0.15	
1385.50	0.15	
1387.00	0.15	
1388.50	0.15	
1390.00	0.15	
1391.50	0.15	
1393.00	0.15	
1394.50	0.15	
1396.00	0.15	
1397.50	0.15	
1399.00	0.15	
1400.50	0.15	
1402.00	0.15	
1403.50	0.15	
1405.00	0.15	
1406.50	0.15	
1408.00	0.15	
1409.50	0.15	
1411.00	0.14	
1412.50	0.14	
1414.00	0.14	
1415.50	0.14	
1417.00	0.14	
1418.50	0.14	
1420.00	0.14	
1421.50	0.14	
1423.00	0.14	
1424.50	0.14	
1426.00	0.14	
1427.50	0.14	
1429.00	0.14	
1430.50	0.14	
1432.00	0.14	
1433.50	0.14	
1435.00	0.14	
1436.50	0.14	
1438.00	0.14	
1439.50	0.14	
1441.00	0.14	
1442.50	0.14	
1444.00	0.13	
1445.50	0.13	
1447.00	0.13	
1448.50	0.13	
1450.00	0.13	
1451.50	0.13	
1453.00	0.13	
1454.50	0.13	
1456.00	0.13	
1457.50	0.13	
1459.00	0.13	
1460.50	0.13	
1462.00	0.13	
1463.50	0.13	
1465.00	0.13	
1466.50	0.13	
1468.00	0.13	
1469.50	0.13	
1471.00	0.13	
1472.50	0.13	
1474.00	0.13	
1475.50	0.13	
1477.00	0.12	
1478.50	0.12	
1480.00	0.12	
1481.50	0.12	
1483.00	0.12	
1484.50	0.12	
1486.00	0.12	
1487.50	0.12	
1489.00	0.12	
1490.50	0.12	
1492.00	0.12	
1493.50	0.12	
1495.00	0.12	
1496.50	0.12	
1498.00	0.12	
1499.50	0.12	
1501.00	0.12	
1502.50	0.12	
1504.00	0.12	
1505.50	0.12	
1507.00	0.12	
1508.50	0.12	
1510.00	0.11	
1511.50	0.11	
1513.00	0.11	
1514.50	0.11	
1516.00	0.11	
1517.50	0.11	
1519.00	0.11	
1520.50	0.11	
1522.00	0.11	
1523.50	0.11	
1525.00	0.11	
1526.50	0.11	
1528.00	0.11	
1529.50	0.11	
1531.00	0.11	
1532.50	0.11	
1534.00	0.11	
1535.50	0.11	
1537.00	0.11	
1538.50	0.11	
1540.00	0.11	
1541.50	0.11	
1543.00	0.11	
1544.50	0.10	
1546.00	0.10	
1547.50	0.10	
1549.00	0.10	
1550.50	0.10	
1552.00	0.10	
1553.50	0.10	
1555.00	0.10	
1556.50	0.10	
1558.00	0.10	
1559.50	0.10	
1561.00	0.10	
1562.50	0.10	
1564.00	0.10	
1565.50	0.10	
1567.00	0.10	
1568.50	0.10	
1570.00	0.10	
1571.50	0.10	
1573.00	0.10	
1574.50	0.10	
1576.00	0.10	
1577.50	0.10	
1579.00	0.09	
1580.50	0.09	
1582.00	0.09	
1583.50	0.09	
1585.00	0.09	
1586.50	0.09	
1588.00	0.09	
1589.50	0.09	
1591.00	0.09	
1592.50	0.09	
1594.00	0.09	
1595.50	0.09	
1597.00	0.09	
1598.50	0.09	
1600.00	0.09	
1601.50	0.09	
1603.00	0.09	
1604.50	0.09	
1606.00	0.09	
1607.50	0.09	
1609.00	0.09	
1610.50	0.09	
1612.00	0.09	
1613.50	0.08	
1615.00	0.08	
1616.50	0.08	
1618.00	0.08	
1619.50	0.08	
1621.00	0.08	
1622.50	0.08	
1624.00	0.08	
1625.50	0.08	
1627.00	0.08	
1628.50	0.08	
1630.00	0.08	
1631.50	0.08	
1633.00	0.08	
1634.50	0.08	
1636.00	0.08	
1637.50	0.08	
1639.00	0.08	
1640.50	0.08	
1642.00	0.08	
1643.50	0.08	
1645.00	0.08	
1646.50	0.08	
1648.00	0.08	
1649.50	0.07	
1651.00	0.07	
1652.50	0.07	
1654.00	0.07	
1655.50	0.07	
1657.00	0.07	
1658.50	0.07	
1660.00	0.07	
1661.50	0.07	
1663.00	0.07	
1664.50	0.07	
1666.00	0.07	
1667.50	0.07	
1669.00	0.07	
1670.50	0.07	
1672.00	0.07	
1673.50	0.07	
1675.00	0.07	
1676.50	0.07	
1678.00	0.07	
1679.50	0.07	
1681.00	0.07	
1682.50	0.07	
1684.00	0.07	
1685.50	0.06	
1687.00	0.06	
1688.50	0.06	
1690.00	0.06	
1691.50	0.06	
1693.00	0.06	
1694.50	0.06	
1696.00	0.06	
1697.50	0.06	
1699.00	0.06	
1700.50	0.06	
1702.00	0.06	
1703.50	0.06	
1705.00	0.06	
1706.50	0.06	
1708.00	0.06	
1709.50	0.06	
1711.00	0.06	
1712.50	0.06	
1714.00	0.06	
1715.50	0.06	
1717.00	0.06	
1718.50	0.06	
1720.00	0.06	
1721.50	0.06	
1723.00	0.05	
1724.50	0.05	
1726.00	0.05	
1727.50	0.05	
1729.00	0.05	
1730.50	0.05	
1732.00	0.05	
1733.50	0.05	
1735.00	0.05	
1736.50	0.05	
1738.00	0.05	
1739.50	0.05	
1741.00	0.05	
1742.50	0.05	
1744.00	0.05	
1745.50	0.05	
1747.00	0.05	
1748.50	0.05	
1750.00	0.05	
1751.50	0.05	
1753.00	0.05	
1754.50	0.05	
1756.00	0.05	
1757.50	0.05	
1759.00	0.05	
1760.50	0.04	
1762.00	0.04	
1763.50	0.04	
1765.00	0.04	
1766.50	0.04	
1768.00	0.04	
1769.50	0.04	
1771.00	0.04	
1772.50	0.04	
1774.00	0.04	
1775.50	0.04	
1777.00	0.04	
1778.50	0.04	
1780.00	0.04	
1781.50	0.04	
1783.00	0.04	
1784.50	0.04	
1786.00	0.04	
1787.50	0.04	
1789.00	0.04	
1790.50	0.04	
1792.00	0.04	
1793.50	0.04	
1795.00	0.04	
1796.50	0.04	
1798.00	0.03	
1799.50	0.03	
1801.00	0.03	
1802.50	0.03	
1804.00	0.03	
1805.50	0.03	
1807.00	0.03	
1808.50	0.03	
1810.00	0.03	
1811.50	0.03	
1813.00	0.03	
1814.50	0.03	
1816.00	0.03	
1817.50	0.03	
1819.00	0.03	
1820.50	0.03	
1822.00	0.03	
1823.50	0.03	
1825.00	0.03	
1826.50	0.03	
1828.00	0.03	
1829.50	0.03	
1831.00	0.03	
1832.50	0.03	
1834.00	0.03	
1835.50	0.03	
1837.00	0.02	
1838.50	0.02	
1840.00	0.02	
1841.50	0.02	
1843.00	0.02	
1844.50	0.02	
1846.00	0.02	
1847.50	0.02	
1849.00	0.02	
1850.50	0.02	
1852.00	0.02	
1853.50	0.02	
1855.00	0.02	
1856.50	0.02	
1858.00	0.02	
1859.50	0.02	
1861.00	0.02	
1862.50	0.02	
1864.00	0.02	
1865.50	0.02	
1867.00	0.02	
1868.50	0.02	
1870.00	0.02	
1871.50	0.02	
1873.00	0.02	
1874.50	0.02	
1876.00	0.01	
1877.50	0.01	
1879.00	0.01	
1880.50	0.01	
1882.00	0.01	
1883.50	0.01	
1885.00	0.01	
1886.50	0.01	
1888.00	0.01	
1889.50	0.01	
1891.00	0.01	
1892.50	0.01	
1894.00	0.01	
1895.50	0.01	
1897.00	0.01	
1898.50	0.01	
1900.00	0.01	
1901.50	0.01	
1903.00	0.01	
1904.50	0.01	
1906.00	0.01	
1907.50	0.01	
1909.00	0.01	
1910.50	0.01	
1912.00	0.01	
1913.50	0.01	
1915.00	0.01	
1916.50	0.00	
1918.00	0.00	
1919.50	0.00	
1921.00	0.00	
1922.50	0.00	
1924.00	0.00	
1925.50	0.00	
1927.00	0.00	
1928.50	0.00	
1930.00	0.00	
1931.50	0.00	
1933.00	0.00	
1934.50	0.00	
1936.00	0.00	
1937.50	0.00	
1939.00	0.00	
1940.50	0.00	
1942.00	0.00	
1943.50	0.00	
1945.00	0.00	
1946.50	0.00	
1948.00	0.00	
1949.50	0.00	
1951.00	0.00	
1952.50	0.00	
1954.00	0.00	
1955.50	0.00	
1957.00	0.00	
1958.50	0.01	
1960.00	0.01	
1961.50	0.01	
1963.00	0.01	
1964.50	0.01	
1966.00	0.01	
1967.50	0.01	
1969.00	0.01	
1970.50	0.01	
1972.00	0.01	
1973.50	0.01	
1975.00	0.01	
1976.50	0.01	
1978.00	0.01	
1979.50	0.01	
1981.00	0.01	
1982.50	0.01	
1984.00	0.01	
1985.50	0.01	
1987.00	0.01	
1988.50	0.01	
1990.00	0.01	
1991.50	0.01	
1993.00	0.01	
1994.50	0.01	
1996.00	0.01	
1997.50	0.01	
1999.00	0.01	
2000.50	0.02	
2002.00	0.02	
2003.50	0.02	
2005.00	0.02	
2006.50	0.02	
2008.00	0.02	
2009.50	0.02	
2011.00	0.02	
2012.50	0.02	
2014.00	0.02	
2015.50	0.02	
2017.00	0.02	
2018.50	0.02	
2020.00	0.02	
2021.50	0.02	
2023.00	0.02	
2024.50	0.02	
2026.00	0.02	
2027.50	0.02	
2029.00	0.02	
2030.50	0.02	
2032.00	0.02	
2033.50	0.02	
2035.00	0.02	
2036.50	0.02	
2038.00	0.02	
2039.50	0.02	
2041.00	0.02	
2042.50	0.03	
2044.00	0.03	
2045.50	0.03	
2047.00	0.03	
2048.50	0.03	
2050.00	0.03	
2051.50	0.03	
2053.00	0.03	
2054.50	0.03	
2056.00	0.03	
2057.50	0.03	
2059.00	0.03	
2060.50	0.03	
2062.00	0.03	
2063.50	0.03	
2065.00	0.03	
2066.50	0.03	
2068.00	0.03	
2069.50	0.03	
2071.00	0.03	
2072.50	0.03	
2074.00	0.03	
2075.50	0.03	
2077.00	0.03	
2078.50	0.03	
2080.00	0.03	
2081.50	0.03	
2083.00	0.03	
2084.50	0.03	
2086.00	0.03	
2087.50	0.04	
2089.00	0.04	
2090.50	0.04	
2092.00	0.04	
2093.50	0.04	
2095.00	0.04	
2096.50	0.04	
2098.00	0.04	
2099.50	0.04	
2101.00	0.04	
2102.50	0.04	
2104.00	0.04	
2105.50	0.04	
2107.00	0.04	
2108.50	0.04	
2110.00	0.04	
2111.50	0.04	
2113.00	0.04	
2114.50	0.04	
2116.00	0.04	
2117.50	0.04	
2119.00	0.04	
2120.50	0.04	
2122.00	0.04	
2123.50	0.04	
2125.00	0.04	
2126.50	0.04	
2128.00	0.04	
2129.50	0.04	
2131.00	0.04	
2132.50	0.05	
2134.00	0.05	
2135.50	0.05	
2137.00	0.05	
2138.50	0.05	
2140.00	0.05	
2141.50	0.05	
2143.00	0.05	
2144.50	0.05	
2146.00	0.05	
2147.50	0.05	
2149.00	0.05	
2150.50	0.05	
2152.00	0.05	
2153.50	0.05	
2155.00	0.05	
2156.50	0.05	
2158.00	0.05	
2159.50	0.05	
2161.00	0.05	
2162.50	0.05	
2164.00	0.05	
2165.50	0.05	
2167.00	0.05	
2168.50	0.05	
2170.00	0.05	
2171.50	0.05	
2173.00	0.05	
2174.50	0.05	
2176.00	0.05	
2177.50	0.05	
2179.00	0.06	
2180.50	0.06	
2182.00	0.06	
2183.50	0.06	
2185.00	0.06	
2186.50	0.06	
2188.00	0.06	
2189.50	0.06	
2191.00	0.06	
2192.50	0.06	
2194.00	0.06	
2195.50	0.06	
2197.00	0.06	
2198.50	0.06	
2200.00	0.06	
2201.50	0.06	
2203.00	0.06	
2204.50	0.06	
2206.00	0.06	
2207.50	0.06	
2209.00	0.06	
2210.50	0.06	
2212.00	0.06	
2213.50	0.06	
2215.00	0.06	
2216.50	0.06	
2218.00	0.06	
2219.50	0.06	
2221.00	0.06	
2222.50	0.06	
2224.00	0.06	
2225.50	0.07	
2227.00	0.07	
2228.50	0.07	
2230.00	0.07	
2231.50	0.07	
2233.00	0.07	
2234.50	0.07	
2236.00	0.07	
2237.50	0.07	
2239.00	0.07	
2240.50	0.07	
2242.00	0.07	
2243.50	0.07	
2245.00	0.07	
2246.50	0.07	
2248.00	0.07	
2249.50	0.07	
2251.00	0.07	
2252.50	0.07	
2254.00	0.07	
2255.50	0.07	
2257.00	0.07	
2258.50	0.07	
2260.00	0.07	
2261.50	0.07	
2263.00	0.07	
2264.50	0.07	
2266.00	0.07	
2267.50	0.07	
2269.00	0.07	
2270.50	0.07	
2272.00	0.07	
2273.50	0.07	
2275.00	0.08	
2276.50	0.08	
2278.00	0.08	
2279.50	0.08	
2281.00	0.08	
2282.50	0.08	
2284.00	0.08	
2285.50	0.08	
2287.00	0.08	
2288.50	0.08	
2290.00	0.08	
2291.50	0.08	
2293.00	0.08	
2294.50	0.08	
2296.00	0.08	
2297.50	0.08	
2299.00	0.08	
2300.50	0.08	
2302.00	0.08	
2303.50	0.08	
2305.00	0.08	
2306.50	0.08	
2308.00	0.08	
2309.50	0.08	
2311.00	0.08	
2312.50	0.08	
2314.00	0.08	
2315.50	0.08	
2317.00	0.08	
2318.50	0.08	
2320.00	0.08	
2321.50	0.08	
2323.00	0.08	
2324.50	0.09	
2326.00	0.09	
2327.50	0.09	
2329.00	0.09	
2330.50	0.09	
2332.00	0.09	
2333.50	0.09	
2335.00	0.09	
2336.50	0.09	
2338.00	0.09	
2339.50	0.09	
2341.00	0.09	
2342.50	0.09	
2344.00	0.09	
2345.50	0.09	
2347.00	0.09	
2348.50	0.09	
2350.00	0.09	
2351.50	0.09	
2353.00	0.09	
2354.50	0.09	
2356.00	0.09	
2357.50	0.09	
2359.00	0.09	
2360.50	0.09	
2362.00	0.09	
2363.50	0.09	
2365.00	0.09	
2366.50	0.09	
2368.00	0.09	
2369.50	0.09	
2371.00	0.09	
2372.50	0.09	
2374.00	0.09	
2375.50	0.09	
2377.00	0.10	
2378.50	0.10	
2380.00	0.10	
2381.50	0.10	
2383.00	0.10	
2384.50	0.10	
2386.00	0.10	
2387.50	0.10	
2389.00	0.10	
2390.50	0.10	
2392.00	0.10	
2393.50	0.10	
2395.00	0.10	
2396.50	0.10	
2398.00	0.10	
2399.50	0.10	
2401.00	0.10	
2402.50	0.10	
2404.00	0.10	
2405.50	0.10	
2407.00	0.10	
2408.50	0.10	
2410.00	0.10	
2411.50	0.10	
2413.00	0.10	
2414.50	0.10	
2416.00	0.10	
2417.50	0.10	
2419.00	0.10	
2420.50	0.10	
2422.00	0.10	
2423.50	0.10	
2425.00	0.10	
2426.50	0.10	
2428.00	0.10	
2429.50	0.11	
2431.00	0.11	
2432.50	0.11	
2434.00	0.11	
2435.50	0.11	
2437.00	0.11	
2438.50	0.11	
2440.00	0.11	
2441.50	0.11	
2443.00	0.11	
2444.50	0.11	
2446.00	0.11	
2447.50	0.11	
2449.00	0.11	
2450.50	0.11	
2452.00	0.11	
2453.50	0.11	
2455.00	0.11	
2456.50	0.11	
2458.00	0.11	
2459.50	0.11	
2461.00	0.11	
2462.50	0.11	
2464.00	0.11	
2465.50	0.11	
2467.00	0.11	
2468.50	0.11	
2470.00	0.11	
2471.50	0.11	
2473.00	0.11	
2474.50	0.11	
2476.00	0.11	
2477.50	0.11	
2479.00	0.11	
2480.50	0.11	
2482.00	0.11	
2483.50	0.11	
2485.00	0.12	
2486.50	0.12	
2488.00	0.12	
2489.50	0.12	
2491.00	0.12	
2492.50	0.12	
2494.00	0.12	
2495.50	0.12	
2497.00	0.12	
2498.50	0.12	
2500.00	0.12	
2501.50	0.12	
2503.00	0.12	
2504.50	0.12	
2506.00	0.12	
2507.50	0.12	
2509.00	0.12	
2510.50	0.12	
2512.00	0.12	
2513.50	0.12	
2515.00	0.12	
2516.50	0.12	
2518.00	0.12	
2519.50	0.12	
2521.00	0.12	
2522.50	0.12	
2524.00	0.12	
2525.50	0.12	
2527.00	0.12	
2528.50	0.12	
2530.00	0.12	
2531.50	0.12	
2533.00	0.12	
2534.50	0.12	
2536.00	0.12	
2537.50	0.12	
2539.00	0.12	
2540.50	0.13	
2542.00	0.13	
2543.50	0.13	
2545.00	0.13	
2546.50	0.13	
2548.00	0.13	
2549.50	0.13	
2551.00	0.13	
2552.50	0.13	
2554.00	0.13	
2555.50	0.13	
2557.00	0.13	
2558.50	0.13	
2560.00	0.13	
2561.50	0.13	
2563.00	0.13	
2564.50	0.13	
2566.00	0.13	
2567.50	0.13	
2569.00	0.13	
2570.50	0.13	
2572.00	0.13	
2573.50	0.13	
2575.00	0.13	
2576.50	0.13	
2578.00	0.13	
2579.50	0.13	
2581.00	0.13	
2582.50	0.13	
2584.00	0.13	
2585.50	0.13	
2587.00	0.13	
2588.50	0.13	
2590.00	0.13	
2591.50	0.13	
2593.00	0.13	
2594.50	0.13	
2596.00	0.13	
2597.50	0.13	
2599.00	0.14	
2600.50	0.14	
2602.00	0.14	
2603.50	0.14	
2605.00	0.14	
2606.50	0.14	
2608.00	0.14	
2609.50	0.14	
2611.00	0.14	
2612.50	0.14	
2614.00	0.14	
2615.50	0.14	
2617.00	0.14	
2618.50	0.14	
2620.00	0.14	
2621.50	0.14	
2623.00	0.14	
2624.50	0.14	
2626.00	0.14	
2627.50	0.14	
2629.00	0.14	
2630.50	0.14	
2632.00	0.14	
2633.50	0.14	
2635.00	0.14	
2636.50	0.14	
2638.00	0.14	
2639.50	0.14	
2641.00	0.14	
2642.50	0.14	
2644.00	0.14	
2645.50	0.14	
2647.00	0.14	
2648.50	0.14	
2650.00	0.14	
2651.50	0.14	
2653.00	0.14	
2654.50	0.14	
2656.00	0.14	
2657.50	0.14	
2659.00	0.14	
2660.50	0.15	
2662.00	0.15	
2663.50	0.15	
2665.00	0.15	
2666.50	0.15	
2668.00	0.15	
2669.50	0.15	
2671.00	0.15	
2672.50	0.15	
2674.00	0.15	
2675.50	0.15	
2677.00	0.15	
2678.50	0.15	
2680.00	0.15	
2681.50	0.15	
2683.00	0.15	
2684.50	0.15	
2686.00	0.15	
2687.50	0.15	
2689.00	0.15	
2690.50	0.15	
2692.00	0.15	
2693.50	0.15	
2695.00	0.15	
2696.50	0.15	
2698.00	0.15	
2699.50	0.15	
2701.00	0.15	
2702.50	0.15	
2704.00	0.15	
2705.50	0.15	
2707.00	0.15	
2708.50	0.15	
2710.00	0.15	
2711.50	0.15	
2713.00	0.15	
2714.50	0.15	
2716.00	0.15	
2717.50	0.15	
2719.00	0.15	
2720.50	0.15	
2722.00	0.16	
2723.50	0.16	
2725.00	0.16	
2726.50	0.16	
2728.00	0.16	
2729.50	0.16	
2731.00	0.16	
2732.50	0.16	
2734.00	0.16	
2735.50	0.16	
2737.00	0.16	
2738.50	0.16	
2740.00	0.16	
2741.50	0.16	
2743.00	0.16	
2744.50	0.16	
2746.00	0.16	
2747.50	0.16	
2749.00	0.16	
2750.50	0.16	
2752.00	0.16	
2753.50	0.16	
2755.00	0.16	
2756.50	0.16	
2758.00	0.16	
2759.50	0.16	
2761.00	0.16	
2762.50	0.16	
2764.00	0.16	
2765.50	0.16	
2767.00	0.16	
2768.50	0.16	
2770.00	0.16	
2771.50	0.16	
2773.00	0.16	
2774.50	0.16	
2776.00	0.16	
2777.50	0.16	
2779.00	0.16	
2780.50	0.16	
2782.00	0.16	
2783.50	0.16	
2785.00	0.16	
2786.50	0.16	
2788.00	0.17	
2789.50	0.17	
2791.00	0.17	
2792.50	0.17	
2794.00	0.17	
2795.50	0.17	
2797.00	0.17	
2798.50	0.17	
2800.00	0.17	
2801.50	0.17	
2803.00	0.17	
2804.50	0.17	
2806.00	0.17	
2807.50	0.17	
2809.00	0.17	
2810.50	0.17	
2812.00	0.17	
2813.50	0.17	
2815.00	0.17	
2816.50	0.17	
2818.00	0.17	
2819.50	0.17	
2821.00	0.17	
2822.50	0.17	
2824.00	0.17	
2825.50	0.17	
2827.00	0.17	
2828.50	0.17	
2830.00	0.17	
2831.50	0.17	
2833.00	0.17	
2834.50	0.17	
2836.00	0.17	
2837.50	0.17	
2839.00	0.17	
2840.50	0.17	
2842.00	0.17	
2843.50	0.17	
2845.00	0.17	
2846.50	0.17	
2848.00	0.17	
2849.50	0.17	
2851.00	0.17	
2852.50	0.17	
2854.00	0.17	
2855.50	0.18	
2857.00	0.18	
2858.50	0.18	
2860.00	0.18	
2861.50	0.18	
2863.00	0.18	
2864.50	0.18	
2866.00	0.18	
2867.50	0.18	
2869.00	0.18	
2870.50	0.18	
2872.00	0.18	
2873.50	0.18	
2875.00	0.18	
2876.50	0.18	
2878.00	0.18	
2879.50	0.18	
2881.00	0.18	
2882.50	0.18	
2884.00	0.18	
2885.50	0.18	
2887.00	0.18	
2888.50	0.18	
2890.00	0.18	
2891.50	0.18	
2893.00	0.18	
2894.50	0.18	
2896.00	0.18	
2897.50	0.18	
2899.00	0.18	
2900.50	0.18	
2902.00	0.18	
2903.50	0.18	
2905.00	0.18	
2906.50	0.18	
2908.00	0.18	
2909.50	0.18	
2911.00	0.18	
2912.50	0.18	
2914.00	0.18	
2915.50	0.18	
2917.00	0.18	
2918.50	0.18	
2920.00	0.18	
2921.50	0.18	
2923.00	0.18	
2924.50	0.19	
2926.00	0.19	
2927.50	0.19	
2929.00	0.19	
2930.50	0.19	
2932.00	0.19	
2933.50	0.19	
2935.00	0.19	
2936.50	0.19	
2938.00	0.19	
2939.50	0.19	
2941.00	0.19	
2942.50	0.19	
2944.00	0.19	
2945.50	0.19	
2947.00	0.19	
2948.50	0.19	
2950.00	0.19	
2951.50	0.19	
2953.00	0.19	
2954.50	0.19	
2956.00	0.19	
2957.50	0.19	
2959.00	0.19	
2960.50	0.19	
2962.00	0.19	
2963.50	0.19	
2965.00	0.19	
2966.50	0.19	
2968.00	0.19	
2969.50	0.19	
2971.00	0.19	
2972.50	0.19	
2974.00	0.19	
2975.50	0.19	
2977.00	0.19	
2978.50	0.19	
2980.00	0.19	
2981.50	0.19	
2983.00	0.19	
2984.50	0.19	
2986.00	0.19	
2987.50	0.19	
2989.00	0.19	
2990.50	0.19	
2992.00	0.19	
2993.50	0.19	
2995.00	0.19	
2996.50	0.19	
2998.00	0.20	
2999.50	0.20	
3001.00	0.20	
3002.50	0.20	
3004.00	0.20	
3005.50	0.20	
3007.00	0.20	
3008.50	0.20	
3010.00	0.20	
3011.50	0.20	
3013.00	0.20	
3014.50	0.20	
3016.00	0.20	
3017.50	0.20	
3019.00	0.20	
3020.50	0.20	
3022.00	0.20	
3023.50	0.20	
3025.00	0.20	
3026.50	0.20	
3028.00	0.20	
3029.50	0.20	
3031.00	0.20	
3032.50	0.20	
3034.00	0.20	
3035.50	0.20	
3037.00	0.20	
3038.50	0.20	
3040.00	0.20	
3041.50	0.20	
3043.00	0.20	
3044.50	0.20	
3046.00	0.20	
3047.50	0.20	
3049.00	0.20	
3050.50	0.20	
3052.00	0.20	
3053.50	0.20	
3055.00	0.20	
3056.50	0.20	
3058.00	0.20	
3059.50	0.20	
3061.00	0.20	
3062.50	0.20	
3064.00	0.20	
3065.50	0.20	
3067.00	0.20	
3068.50	0.20	
3070.00	0.20	
3071.50	0.20	
3073.00	0.20	
3074.50	0.21	
3076.00	0.21	
3077.50	0.21	
3079.00	0.21	
3080.50	0.21	
3082.00	0.21	
3083.50	0.21	
3085.00	0.21	
3086.50	0.21	
3088.00	0.21	
3089.50	0.21	
3091.00	0.21	
3092.50	0.21	
3094.00	0.21	
3095.50	0.21	
3097.00	0.21	
3098.50	0.21	
3100.00	0.21	
3101.50	0.21	
3103.00	0.21	
3104.50	0.21	
3106.00	0.21	
3107.50	0.21	
3109.00	0.21	
3110.50	0.21	
3112.00	0.21	
3113.50	0.21	
3115.00	0.21	
3116.50	0.21	
3118.00	0.21	
3119.50	0.21	
3121.00	0.21	
3122.50	0.21	
3124.00	0.21	
3125.50	0.21	
3127.00	0.21	
3128.50	0.21	
3130.00	0.21	
3131.50	0.21	
3133.00	0.21	
3134.50	0.21	
3136.00	0.21	
3137.50	0.21	
3139.00	0.21	
3140.50	0.21	
3142.00	0.21	
3143.50	0.21	
3145.00	0.21	
3146.50	0.21	
3148.00	0.21	
3149.50	0.21	
3151.00	0.21	
3152.50	0.21	
3154.00	0.22	
3155.50	0.22	
3157.00	0.22	
3158.50	0.22	
3160.00	0.22	
3161.50	0.22	
3163.00	0.22	
3164.50	0.22	
3166.00	0.22	
3167.50	0.22	
3169.00	0.22	
3170.50	0.22	
3172.00	0.22	
3173.50	0.22	
3175.00	0.22	
3176.50	0.22	
3178.00	0.22	
3179.50	0.22	
3181.00	0.22	
3182.50	0.22	
3184.00	0.22	
3185.50	0.22	
3187.00	0.22	
3188.50	0.22	
3190.00	0.22	
3191.50	0.22	
3193.00	0.22	
3194.50	0.22	
3196.00	0.22	
3197.50	0.22	
3199.00	0.22	
3200.50	0.22	
3202.00	0.22	
3203.50	0.22	
3205.00	0.22	
3206.50	0.22	
3208.00	0.22	
3209.50	0.22	
3211.00	0.22	
3212.50	0.22	
3214.00	0.22	
3215.50	0.22	
3217.00	0.22	
3218.50	0.22	
3220.00	0.22	
3221.50	0.22	
3223.00	0.22	
3224.50	0.22	
3226.00	0.22	
3227.50	0.22	
3229.00	0.22	
3230.50	0.22	
3232.00	0.22	
3233.50	0.22	
3235.00	0.22	
3236.50	0.23	
3238.00	0.23	
3239.50	0.23	
3241.00	0.23	
3242.50	0.23	
3244.00	0.23	
3245.50	0.23	
3247.00	0.23	
3248.50	0.23	
3250.00	0.23	
3251.50	0.23	
3253.00	0.23	
3254.50	0.23	
3256.00	0.23	
3257.50	0.23	
3259.00	0.23	
3260.50	0.23	
3262.00	0.23	
3263.50	0.23	
3265.00	0.23	
3266.50	0.23	
3268.00	0.23	
3269.50	0.23	
3271.00	0.23	
3272.50	0.23	
3274.00	0.23	
3275.50	0.23	
3277.00	0.23	
3278.50	0.23	
3280.00	0.23	
3281.50	0.23	
3283.00	0.23	
3284.50	0.23	
3286.00	0.23	
3287.50	0.23	
3289.00	0.23	
3290.50	0.23	
3292.00	0.23	
3293.50	0.23	
3295.00	0.23	
3296.50	0.23	
3298.00	0.23	
3299.50	0.23	
3301.00	0.23	
3302.50	0.23	
3304.00	0.23	
3305.50	0.23	
3307.00	0.23	
3308.50	0.23	
3310.00	0.23	
3311.50	0.23	
3313.00	0.23	
3314.50	0.23	
3316.00	0.23	
3317.50	0.23	
3319.00	0.23	
3320.50	0.23	
3322.00	0.23	
3323.50	0.24	
3325.00	0.24	
3326.50	0.24	
3328.00	0.24	
3329.50	0.24	
3331.00	0.24	
3332.50	0.24	
3334.00	0.24	
3335.50	0.24	
3337.00	0.24	
3338.50	0.24	
3340.00	0.24	
3341.50	0.24	
3343.00	0.24	
3344.50	0.24	
3346.00	0.24	
3347.50	0.24	
3349.00	0.24	
3350.50	0.24	
3352.00	0.24	
3353.50	0.24	
3355.00	0.24	
3356.50	0.24	
3358.00	0.24	
3359.50	0.24	
3361.00	0.24	
3362.50	0.24	
3364.00	0.24	
3365.50	0.24	
3367.00	0.24	
3368.50	0.24	
3370.00	0.24	
3371.50	0.24	
3373.00	0.24	
3374.50	0.24	
3376.00	0.24	
3377.50	0.24	
3379.00	0.24	
3380.50	0.24	
3382.00	0.24	
3383.50	0.24	
3385.00	0.24	
3386.50	0.24	
3388.00	0.24	
3389.50	0.24	
3391.00	0.24	
3392.50	0.24	
3394.00	0.24	
3395.50	0.24	
3397.00	0.24	
3398.50	0.24	
3400.00	0.24	
3401.50	0.24	
3403.00	0.24	
3404.50	0.24	
3406.00	0.24	
3407.50	0.24	
3409.00	0.24	
3410.50	0.24	
3412.00	0.24	
3413.50	0.24	
3415.00	0.24	
3416.50	0.25	
3418.00	0.25	
3419.50	0.25	
3421.00	0.25	
3422.50	0.25	
3424.00	0.25	
3425.50	0.25	
3427.00	0.25	
3428.50	0.25	
3430.00	0.25	
3431.50	0.25	
3433.00	0.25	
3434.50	0.25	
3436.00	0.25	
3437.50	0.25	
3439.00	0.25	
3440.50	0.25	
3442.00	0.25	
3443.50	0.25	
3445.00	0.25	
3446.50	0.25	
3448.00	0.25	
3449.50	0.25	
3451.00	0.25	
3452.50	0.25	
3454.00	0.25	
3455.50	0.25	
3457.00	0.25	
3458.50	0.25	
3460.00	0.25	
3461.50	0.25	
3463.00	0.25	
3464.50	0.25	
3466.00	0.25	
3467.50	0.25	
3469.00	0.25	
3470.50	0.25	
3472.00	0.25	
3473.50	0.25	
3475.00	0.25	
3476.50	0.25	
3478.00	0.25	
3479.50	0.25	
3481.00	0.25	
3482.50	0.25	
3484.00	0.25	
3485.50	0.25	
3487.00	0.25	
3488.50	0.25	
3490.00	0.25	
3491.50	0.25	
3493.00	0.25	
3494.50	0.25	
3496.00	0.25	
3497.50	0.25	
3499.00	0.25	
3500.50	0.25	
3502.00	0.25	
3503.50	0.25	
3505.00	0.25	
3506.50	0.25	
3508.00	0.25	
3509.50	0.25	
3511.00	0.25	
3512.50	0.26	
3514.00	0.26	
3515.50	0.26	
3517.00	0.26	
3518.50	0.26	
3520.00	0.26	
3521.50	0.26	
3523.00	0.26	
3524.50	0.26	
3526.00	0.26	
3527.50	0.26	
3529.00	0.26	
3530.50	0.26	
3532.00	0.26	
3533.50	0.26	
3535.00	0.26	
3536.50	0.26	
3538.00	0.26	
3539.50	0.26	
3541.00	0.26	
3542.50	0.26	
3544.00	0.26	
3545.50	0.26	
3547.00	0.26	
3548.50	0.26	
3550.00	0.26	
3551.50	0.26	
3553.00	0.26	
3554.50	0.26	
3556.00	0.26	
3557.50	0.26	
3559.00	0.26	
3560.50	0.26	
3562.00	0.26	
3563.50	0.26	
3565.00	0.26	
3566.50	0.26	
3568.00	0.26	
3569.50	0.26	
3571.00	0.26	
3572.50	0.26	
3574.00	0.26	
3575.50	0.26	
3577.00	0.26	
3578.50	0.26	
3580.00	0.26	
3581.50	0.26	
3583.00	0.26	
3584.50	0.26	
3586.00	0.26	
3587.50	0.26	
3589.00	0.26	
3590.50	0.26	
3592.00	0.26	
3593.50	0.26	
3595.00	0.26	
3596.50	0.26	
3598.00	0.26	
3599.50	0.26	
3601.00	0.26	
3602.50	0.26	
3604.00	0.26	
3605.50	0.26	
3607.00	0.26	
3608.50	0.26	
3610.00	0.26	
3611.50	0.26	
3613.00	0.26	
3614.50	0.27	
3616.00	0.27	
3617.50	0.27	
3619.00	0.27	
3620.50	0.27	
3622.00	0.27	
3623.50	0.27	
3625.00	0.27	
3626.50	0.27	
3628.00	0.27	
3629.50	0.27	
3631.00	0.27	
3632.50	0.27	
3634.00	0.27	
3635.50	0.27	
3637.00	0.27	
3638.50	0.27	
3640.00	0.27	
3641.50	0.27	
3643.00	0.27	
3644.50	0.27	
3646.00	0.27	
3647.50	0.27	
3649.00	0.27	
3650.50	0.27	
3652.00	0.27	
3653.50	0.27	
3655.00	0.27	
3656.50	0.27	
3658.00	0.27	
3659.50	0.27	
3661.00	0.27	
3662.50	0.27	
3664.00	0.27	
3665.50	0.27	
3667.00	0.27	
3668.50	0.27	
3670.00	0.27	
3671.50	0.27	
3673.00	0.27	
3674.50	0.27	
3676.00	0.27	
3677.50	0.27	
3679.00	0.27	
3680.50	0.27	
3682.00	0.27	
3683.50	0.27	
3685.00	0.27	
3686.50	0.27	
3688.00	0.27	
3689.50	0.27	
3691.00	0.27	
3692.50	0.27	
3694.00	0.27	
3695.50	0.27	
3697.00	0.27	
3698.50	0.27	
3700.00	0.27	
3701.50	0.27	
3703.00	0.27	
3704.50	0.27	
3706.00	0.27	
3707.50	0.27	
3709.00	0.27	
3710.50	0.27	
3712.00	0.27	
3713.50	0.27	
3715.00	0.27	
3716.50	0.27	
3718.00	0.27	
3719.50	0.27	
3721.00	0.27	
3722.50	0.28	
3724.00	0.28	
3725.50	0.28	
3727.00	0.28	
3728.50	0.28	
3730.00	0.28	
3731.50	0.28	
3733.00	0.28	
3734.50	0.28	
3736.00	0.28	
3737.50	0.28	
3739.00	0.28	
3740.50	0.28	
3742.00	0.28	
3743.50	0.28	
3745.00	0.28	
3746.50	0.28	
3748.00	0.28	
3749.50	0.28	
3751.00	0.28	
3752.50	0.28	
3754.00	0.28	
3755.50	0.28	
3757.00	0.28	
3758.50	0.28	
3760.00	0.28	
3761.50	0.28	
3763.00	0.28	
3764.50	0.28	
3766.00	0.28	
3767.50	0.28	
3769.00	0.28	
3770.50	0.28	
3772.00	0.28	
3773.50	0.28	
3775.00	0.28	
3776.50	0.28	
3778.00	0.28	
3779.50	0.28	
3781.00	0.28	
3782.50	0.28	
3784.00	0.28	
3785.50	0.28	
3787.00	0.28	
3788.50	0.28	
3790.00	0.28	
3791.50	0.28	
3793.00	0.28	
3794.50	0.28	
3796.00	0.28	
3797.50	0.28	
3799.00	0.28	
3800.50	0.28	
3802.00	0.28	
3803.50	0.28	
3805.00	0.28	
3806.50	0.28	
3808.00	0.28	
3809.50	0.28	
3811.00	0.28	
3812.50	0.28	
3814.00	0.28	
3815.50	0.28	
3817.00	0.28	
3818.50	0.28	
3820.00	0.28	
3821.50	0.28	
3823.00	0.28	
3824.50	0.28	
3826.00	0.28	
3827.50	0.28	
3829.00	0.28	
3830.50	0.28	
3832.00	0.28	
3833.50	0.28	
3835.00	0.28	
3836.50	0.28	
3838.00	0.29	
3839.50	0.29	
3841.00	0.29	
3842.50	0.29	
3844.00	0.29	
3845.50	0.29	
3847.00	0.29	
3848.50	0.29	
3850.00	0.29	
3851.50	0.29	
3853.00	0.29	
3854.50	0.29	
3856.00	0.29	
3857.50	0.29	
3859.00	0.29	
3860.50	0.29	
3862.00	0.29	
3863.50	0.29	
3865.00	0.29	
3866.50	0.29	
3868.00	0.29	
3869.50	0.29	
3871.00	0.29	
3872.50	0.29	
3874.00	0.29	
3875.50	0.29	
3877.00	0.29	
3878.50	0.29	
3880.00	0.29	
3881.50	0.29	
3883.00	0.29	
3884.50	0.29	
3886.00	0.29	
3887.50	0.29	
3889.00	0.29	
3890.50	0.29	
3892.00	0.29	
3893.50	0.29	
3895.00	0.29	
3896.50	0.29	
3898.00	0.29	
3899.50	0.29	
3901.00	0.29	
3902.50	0.29	
3904.00	0.29	
3905.50	0.29	
3907.00	0.29	
3908.50	0.29	
3910.00	0.29	
3911.50	0.29	
3913.00	0.29	
3914.50	0.29	
3916.00	0.29	
3917.50	0.29	
3919.00	0.29	
3920.50	0.29	
3922.00	0.29	
3923.50	0.29	
3925.00	0.29	
3926.50	0.29	
3928.00	0.29	
3929.50	0.29	
3931.00	0.29	
3932.50	0.29	
3934.00	0.29	
3935.50	0.29	
3937.00	0.29	
3938.50	0.29	
3940.00	0.29	
3941.50	0.29	
3943.00	0.29	
3944.50	0.29	
3946.00	0.29	
3947.50	0.29	
3949.00	0.29	
3950.50	0.29	
3952.00	0.29	
3953.50	0.29	
3955.00	0.29	
3956.50	0.29	
3958.00	0.29	
3959.50	0.29	
3961.00	0.30	
3962.50	0.30	
3964.00	0.30	
3965.50	0.30	
3967.00	0.30	
3968.50	0.30	
3970.00	0.30	
3971.50	0.30	
3973.00	0.30	
3974.50	0.30	
3976.00	0.30	
3977.50	0.30	
3979.00	0.30	
3980.50	0.30	
3982.00	0.30	
3983.50	0.30	
3985.00	0.30	
3986.50	0.30	
3988.00	0.30	
3989.50	0.30	
3991.00	0.30	
3992.50	0.30	
3994.00	0.30	
3995.50	0.30	
3997.00	0.30	
3998.50	0.30	
4000.00	0.30	
