 Frequency [Hz] - Resonance Curve	Voltage [V] - Resonance Curve	
1001.50	0.08	
1003.00	0.08	
1004.50	0.08	
1006.00	0.08	
1007.50	0.08	
1009.00	0.08	
1010.50	0.08	
1012.00	0.08	
1013.50	0.08	
1015.00	0.08	
1016.50	0.08	
1018.00	0.08	
1019.50	0.08	
1021.00	0.08	
1022.50	0.08	
1024.00	0.08	
1025.50	0.09	
1027.00	0.09	
1028.50	0.09	
1030.00	0.09	
1031.50	0.09	
1033.00	0.09	
1034.50	0.09	
1036.00	0.09	
1037.50	0.09	
1039.00	0.09	
1040.50	0.09	
1042.00	0.09	
1043.50	0.09	
1045.00	0.09	
1046.50	0.09	
1048.00	0.09	
1049.50	0.09	
1051.00	0.09	
1052.50	0.09	
1054.00	0.09	
1055.50	0.09	
1057.00	0.09	
1058.50	0.09	
1060.00	0.09	
1061.50	0.09	
1063.00	0.09	
1064.50	0.09	
1066.00	0.09	
1067.50	0.09	
1069.00	0.09	
1070.50	0.09	
1072.00	0.09	
1073.50	0.09	
1075.00	0.09	
1076.50	0.09	
1078.00	0.09	
1079.50	0.09	
1081.00	0.09	
1082.50	0.09	
1084.00	0.09	
1085.50	0.09	
1087.00	0.09	
1088.50	0.09	
1090.00	0.09	
1091.50	0.10	
1093.00	0.10	
1094.50	0.10	
1096.00	0.10	
1097.50	0.10	
1099.00	0.10	
1100.50	0.10	
1102.00	0.10	
1103.50	0.10	
1105.00	0.10	
1106.50	0.10	
1108.00	0.10	
1109.50	0.10	
1111.00	0.10	
1112.50	0.10	
1114.00	0.10	
1115.50	0.10	
1117.00	0.10	
1118.50	0.10	
1120.00	0.10	
1121.50	0.10	
1123.00	0.10	
1124.50	0.10	
1126.00	0.10	
1127.50	0.10	
1129.00	0.10	
1130.50	0.10	
1132.00	0.10	
1133.50	0.10	
1135.00	0.10	
1136.50	0.10	
1138.00	0.10	
1139.50	0.10	
1141.00	0.10	
1142.50	0.10	
1144.00	0.10	
1145.50	0.10	
1147.00	0.10	
1148.50	0.11	
1150.00	0.11	
1151.50	0.11	
1153.00	0.11	
1154.50	0.11	
1156.00	0.11	
1157.50	0.11	
1159.00	0.11	
1160.50	0.11	
1162.00	0.11	
1163.50	0.11	
1165.00	0.11	
1166.50	0.11	
1168.00	0.11	
1169.50	0.11	
1171.00	0.11	
1172.50	0.11	
1174.00	0.11	
1175.50	0.11	
1177.00	0.11	
1178.50	0.11	
1180.00	0.11	
1181.50	0.11	
1183.00	0.11	
1184.50	0.11	
1186.00	0.11	
1187.50	0.11	
1189.00	0.11	
1190.50	0.11	
1192.00	0.11	
1193.50	0.11	
1195.00	0.11	
1196.50	0.11	
1198.00	0.11	
1199.50	0.11	
1201.00	0.12	
1202.50	0.12	
1204.00	0.12	
1205.50	0.12	
1207.00	0.12	
1208.50	0.12	
1210.00	0.12	
1211.50	0.12	
1213.00	0.12	
1214.50	0.12	
1216.00	0.12	
1217.50	0.12	
1219.00	0.12	
1220.50	0.12	
1222.00	0.12	
1223.50	0.12	
1225.00	0.12	
1226.50	0.12	
1228.00	0.12	
1229.50	0.12	
1231.00	0.12	
1232.50	0.12	
1234.00	0.12	
1235.50	0.12	
1237.00	0.12	
1238.50	0.12	
1240.00	0.12	
1241.50	0.12	
1243.00	0.12	
1244.50	0.12	
1246.00	0.12	
1247.50	0.13	
1249.00	0.13	
1250.50	0.13	
1252.00	0.13	
1253.50	0.13	
1255.00	0.13	
1256.50	0.13	
1258.00	0.13	
1259.50	0.13	
1261.00	0.13	
1262.50	0.13	
1264.00	0.13	
1265.50	0.13	
1267.00	0.13	
1268.50	0.13	
1270.00	0.13	
1271.50	0.13	
1273.00	0.13	
1274.50	0.13	
1276.00	0.13	
1277.50	0.13	
1279.00	0.13	
1280.50	0.13	
1282.00	0.13	
1283.50	0.13	
1285.00	0.13	
1286.50	0.13	
1288.00	0.13	
1289.50	0.14	
1291.00	0.14	
1292.50	0.14	
1294.00	0.14	
1295.50	0.14	
1297.00	0.14	
1298.50	0.14	
1300.00	0.14	
1301.50	0.14	
1303.00	0.14	
1304.50	0.14	
1306.00	0.14	
1307.50	0.14	
1309.00	0.14	
1310.50	0.14	
1312.00	0.14	
1313.50	0.14	
1315.00	0.14	
1316.50	0.14	
1318.00	0.14	
1319.50	0.14	
1321.00	0.14	
1322.50	0.14	
1324.00	0.14	
1325.50	0.14	
1327.00	0.15	
1328.50	0.15	
1330.00	0.15	
1331.50	0.15	
1333.00	0.15	
1334.50	0.15	
1336.00	0.15	
1337.50	0.15	
1339.00	0.15	
1340.50	0.15	
1342.00	0.15	
1343.50	0.15	
1345.00	0.15	
1346.50	0.15	
1348.00	0.15	
1349.50	0.15	
1351.00	0.15	
1352.50	0.15	
1354.00	0.15	
1355.50	0.15	
1357.00	0.15	
1358.50	0.15	
1360.00	0.15	
1361.50	0.16	
1363.00	0.16	
1364.50	0.16	
1366.00	0.16	
1367.50	0.16	
1369.00	0.16	
1370.50	0.16	
1372.00	0.16	
1373.50	0.16	
1375.00	0.16	
1376.50	0.16	
1378.00	0.16	
1379.50	0.16	
1381.00	0.16	
1382.50	0.16	
1384.00	0.16	
1385.50	0.16	
1387.00	0.16	
1388.50	0.16	
1390.00	0.16	
1391.50	0.16	
1393.00	0.17	
1394.50	0.17	
1396.00	0.17	
1397.50	0.17	
1399.00	0.17	
1400.50	0.17	
1402.00	0.17	
1403.50	0.17	
1405.00	0.17	
1406.50	0.17	
1408.00	0.17	
1409.50	0.17	
1411.00	0.17	
1412.50	0.17	
1414.00	0.17	
1415.50	0.17	
1417.00	0.17	
1418.50	0.17	
1420.00	0.17	
1421.50	0.18	
1423.00	0.18	
1424.50	0.18	
1426.00	0.18	
1427.50	0.18	
1429.00	0.18	
1430.50	0.18	
1432.00	0.18	
1433.50	0.18	
1435.00	0.18	
1436.50	0.18	
1438.00	0.18	
1439.50	0.18	
1441.00	0.18	
1442.50	0.18	
1444.00	0.18	
1445.50	0.18	
1447.00	0.18	
1448.50	0.19	
1450.00	0.19	
1451.50	0.19	
1453.00	0.19	
1454.50	0.19	
1456.00	0.19	
1457.50	0.19	
1459.00	0.19	
1460.50	0.19	
1462.00	0.19	
1463.50	0.19	
1465.00	0.19	
1466.50	0.19	
1468.00	0.19	
1469.50	0.19	
1471.00	0.19	
1472.50	0.19	
1474.00	0.20	
1475.50	0.20	
1477.00	0.20	
1478.50	0.20	
1480.00	0.20	
1481.50	0.20	
1483.00	0.20	
1484.50	0.20	
1486.00	0.20	
1487.50	0.20	
1489.00	0.20	
1490.50	0.20	
1492.00	0.20	
1493.50	0.20	
1495.00	0.20	
1496.50	0.21	
1498.00	0.21	
1499.50	0.21	
1501.00	0.21	
1502.50	0.21	
1504.00	0.21	
1505.50	0.21	
1507.00	0.21	
1508.50	0.21	
1510.00	0.21	
1511.50	0.21	
1513.00	0.21	
1514.50	0.21	
1516.00	0.21	
1517.50	0.22	
1519.00	0.22	
1520.50	0.22	
1522.00	0.22	
1523.50	0.22	
1525.00	0.22	
1526.50	0.22	
1528.00	0.22	
1529.50	0.22	
1531.00	0.22	
1532.50	0.22	
1534.00	0.22	
1535.50	0.22	
1537.00	0.22	
1538.50	0.23	
1540.00	0.23	
1541.50	0.23	
1543.00	0.23	
1544.50	0.23	
1546.00	0.23	
1547.50	0.23	
1549.00	0.23	
1550.50	0.23	
1552.00	0.23	
1553.50	0.23	
1555.00	0.23	
1556.50	0.24	
1558.00	0.24	
1559.50	0.24	
1561.00	0.24	
1562.50	0.24	
1564.00	0.24	
1565.50	0.24	
1567.00	0.24	
1568.50	0.24	
1570.00	0.24	
1571.50	0.24	
1573.00	0.24	
1574.50	0.25	
1576.00	0.25	
1577.50	0.25	
1579.00	0.25	
1580.50	0.25	
1582.00	0.25	
1583.50	0.25	
1585.00	0.25	
1586.50	0.25	
1588.00	0.25	
1589.50	0.25	
1591.00	0.26	
1592.50	0.26	
1594.00	0.26	
1595.50	0.26	
1597.00	0.26	
1598.50	0.26	
1600.00	0.26	
1601.50	0.26	
1603.00	0.26	
1604.50	0.26	
1606.00	0.26	
1607.50	0.27	
1609.00	0.27	
1610.50	0.27	
1612.00	0.27	
1613.50	0.27	
1615.00	0.27	
1616.50	0.27	
1618.00	0.27	
1619.50	0.27	
1621.00	0.27	
1622.50	0.28	
1624.00	0.28	
1625.50	0.28	
1627.00	0.28	
1628.50	0.28	
1630.00	0.28	
1631.50	0.28	
1633.00	0.28	
1634.50	0.28	
1636.00	0.28	
1637.50	0.29	
1639.00	0.29	
1640.50	0.29	
1642.00	0.29	
1643.50	0.29	
1645.00	0.29	
1646.50	0.29	
1648.00	0.29	
1649.50	0.29	
1651.00	0.30	
1652.50	0.30	
1654.00	0.30	
1655.50	0.30	
1657.00	0.30	
1658.50	0.30	
1660.00	0.30	
1661.50	0.30	
1663.00	0.30	
1664.50	0.31	
1666.00	0.31	
1667.50	0.31	
1669.00	0.31	
1670.50	0.31	
1672.00	0.31	
1673.50	0.31	
1675.00	0.31	
1676.50	0.32	
1678.00	0.32	
1679.50	0.32	
1681.00	0.32	
1682.50	0.32	
1684.00	0.32	
1685.50	0.32	
1687.00	0.32	
1688.50	0.32	
1690.00	0.33	
1691.50	0.33	
1693.00	0.33	
1694.50	0.33	
1696.00	0.33	
1697.50	0.33	
1699.00	0.33	
1700.50	0.33	
1702.00	0.34	
1703.50	0.34	
1705.00	0.34	
1706.50	0.34	
1708.00	0.34	
1709.50	0.34	
1711.00	0.34	
1712.50	0.35	
1714.00	0.35	
1715.50	0.35	
1717.00	0.35	
1718.50	0.35	
1720.00	0.35	
1721.50	0.35	
1723.00	0.35	
1724.50	0.36	
1726.00	0.36	
1727.50	0.36	
1729.00	0.36	
1730.50	0.36	
1732.00	0.36	
1733.50	0.36	
1735.00	0.36	
1736.50	0.37	
1738.00	0.37	
1739.50	0.37	
1741.00	0.37	
1742.50	0.37	
1744.00	0.37	
1745.50	0.37	
1747.00	0.38	
1748.50	0.38	
1750.00	0.38	
1751.50	0.38	
1753.00	0.38	
1754.50	0.38	
1756.00	0.38	
1757.50	0.39	
1759.00	0.39	
1760.50	0.39	
1762.00	0.39	
1763.50	0.39	
1765.00	0.39	
1766.50	0.39	
1768.00	0.40	
1769.50	0.40	
1771.00	0.40	
1772.50	0.40	
1774.00	0.40	
1775.50	0.40	
1777.00	0.40	
1778.50	0.40	
1780.00	0.41	
1781.50	0.41	
1783.00	0.41	
1784.50	0.41	
1786.00	0.41	
1787.50	0.41	
1789.00	0.41	
1790.50	0.42	
1792.00	0.42	
1793.50	0.42	
1795.00	0.42	
1796.50	0.42	
1798.00	0.42	
1799.50	0.42	
1801.00	0.43	
1802.50	0.43	
1804.00	0.43	
1805.50	0.43	
1807.00	0.43	
1808.50	0.43	
1810.00	0.43	
1811.50	0.43	
1813.00	0.44	
1814.50	0.44	
1816.00	0.44	
1817.50	0.44	
1819.00	0.44	
1820.50	0.44	
1822.00	0.44	
1823.50	0.45	
1825.00	0.45	
1826.50	0.45	
1828.00	0.45	
1829.50	0.45	
1831.00	0.45	
1832.50	0.45	
1834.00	0.45	
1835.50	0.45	
1837.00	0.46	
1838.50	0.46	
1840.00	0.46	
1841.50	0.46	
1843.00	0.46	
1844.50	0.46	
1846.00	0.46	
1847.50	0.46	
1849.00	0.47	
1850.50	0.47	
1852.00	0.47	
1853.50	0.47	
1855.00	0.47	
1856.50	0.47	
1858.00	0.47	
1859.50	0.47	
1861.00	0.47	
1862.50	0.47	
1864.00	0.48	
1865.50	0.48	
1867.00	0.48	
1868.50	0.48	
1870.00	0.48	
1871.50	0.48	
1873.00	0.48	
1874.50	0.48	
1876.00	0.48	
1877.50	0.48	
1879.00	0.48	
1880.50	0.49	
1882.00	0.49	
1883.50	0.49	
1885.00	0.49	
1886.50	0.49	
1888.00	0.49	
1889.50	0.49	
1891.00	0.49	
1892.50	0.49	
1894.00	0.49	
1895.50	0.49	
1897.00	0.49	
1898.50	0.49	
1900.00	0.49	
1901.50	0.49	
1903.00	0.49	
1904.50	0.50	
1906.00	0.50	
1907.50	0.50	
1909.00	0.50	
1910.50	0.50	
1912.00	0.50	
1913.50	0.50	
1915.00	0.50	
1916.50	0.50	
1918.00	0.50	
1919.50	0.50	
1921.00	0.50	
1922.50	0.50	
1924.00	0.50	
1925.50	0.50	
1927.00	0.50	
1928.50	0.50	
1930.00	0.50	
1931.50	0.50	
1933.00	0.50	
1934.50	0.50	
1936.00	0.50	
1937.50	0.50	
1939.00	0.50	
1940.50	0.50	
1942.00	0.50	
1943.50	0.50	
1945.00	0.50	
1946.50	0.50	
1948.00	0.50	
1949.50	0.50	
1951.00	0.50	
1952.50	0.50	
1954.00	0.50	
1955.50	0.50	
1957.00	0.50	
1958.50	0.50	
1960.00	0.50	
1961.50	0.50	
1963.00	0.50	
1964.50	0.50	
1966.00	0.50	
1967.50	0.50	
1969.00	0.50	
1970.50	0.49	
1972.00	0.49	
1973.50	0.49	
1975.00	0.49	
1976.50	0.49	
1978.00	0.49	
1979.50	0.49	
1981.00	0.49	
1982.50	0.49	
1984.00	0.49	
1985.50	0.49	
1987.00	0.49	
1988.50	0.49	
1990.00	0.49	
1991.50	0.49	
1993.00	0.49	
1994.50	0.48	
1996.00	0.48	
1997.50	0.48	
1999.00	0.48	
2000.50	0.48	
2002.00	0.48	
2003.50	0.48	
2005.00	0.48	
2006.50	0.48	
2008.00	0.48	
2009.50	0.48	
2011.00	0.48	
2012.50	0.48	
2014.00	0.47	
2015.50	0.47	
2017.00	0.47	
2018.50	0.47	
2020.00	0.47	
2021.50	0.47	
2023.00	0.47	
2024.50	0.47	
2026.00	0.47	
2027.50	0.47	
2029.00	0.46	
2030.50	0.46	
2032.00	0.46	
2033.50	0.46	
2035.00	0.46	
2036.50	0.46	
2038.00	0.46	
2039.50	0.46	
2041.00	0.46	
2042.50	0.46	
2044.00	0.45	
2045.50	0.45	
2047.00	0.45	
2048.50	0.45	
2050.00	0.45	
2051.50	0.45	
2053.00	0.45	
2054.50	0.45	
2056.00	0.45	
2057.50	0.44	
2059.00	0.44	
2060.50	0.44	
2062.00	0.44	
2063.50	0.44	
2065.00	0.44	
2066.50	0.44	
2068.00	0.44	
2069.50	0.43	
2071.00	0.43	
2072.50	0.43	
2074.00	0.43	
2075.50	0.43	
2077.00	0.43	
2078.50	0.43	
2080.00	0.43	
2081.50	0.43	
2083.00	0.42	
2084.50	0.42	
2086.00	0.42	
2087.50	0.42	
2089.00	0.42	
2090.50	0.42	
2092.00	0.42	
2093.50	0.42	
2095.00	0.42	
2096.50	0.41	
2098.00	0.41	
2099.50	0.41	
2101.00	0.41	
2102.50	0.41	
2104.00	0.41	
2105.50	0.41	
2107.00	0.41	
2108.50	0.40	
2110.00	0.40	
2111.50	0.40	
2113.00	0.40	
2114.50	0.40	
2116.00	0.40	
2117.50	0.40	
2119.00	0.40	
2120.50	0.40	
2122.00	0.39	
2123.50	0.39	
2125.00	0.39	
2126.50	0.39	
2128.00	0.39	
2129.50	0.39	
2131.00	0.39	
2132.50	0.39	
2134.00	0.38	
2135.50	0.38	
2137.00	0.38	
2138.50	0.38	
2140.00	0.38	
2141.50	0.38	
2143.00	0.38	
2144.50	0.38	
2146.00	0.38	
2147.50	0.37	
2149.00	0.37	
2150.50	0.37	
2152.00	0.37	
2153.50	0.37	
2155.00	0.37	
2156.50	0.37	
2158.00	0.37	
2159.50	0.37	
2161.00	0.36	
2162.50	0.36	
2164.00	0.36	
2165.50	0.36	
2167.00	0.36	
2168.50	0.36	
2170.00	0.36	
2171.50	0.36	
2173.00	0.36	
2174.50	0.36	
2176.00	0.35	
2177.50	0.35	
2179.00	0.35	
2180.50	0.35	
2182.00	0.35	
2183.50	0.35	
2185.00	0.35	
2186.50	0.35	
2188.00	0.35	
2189.50	0.34	
2191.00	0.34	
2192.50	0.34	
2194.00	0.34	
2195.50	0.34	
2197.00	0.34	
2198.50	0.34	
2200.00	0.34	
2201.50	0.34	
2203.00	0.34	
2204.50	0.34	
2206.00	0.33	
2207.50	0.33	
2209.00	0.33	
2210.50	0.33	
2212.00	0.33	
2213.50	0.33	
2215.00	0.33	
2216.50	0.33	
2218.00	0.33	
2219.50	0.33	
2221.00	0.32	
2222.50	0.32	
2224.00	0.32	
2225.50	0.32	
2227.00	0.32	
2228.50	0.32	
2230.00	0.32	
2231.50	0.32	
2233.00	0.32	
2234.50	0.32	
2236.00	0.32	
2237.50	0.31	
2239.00	0.31	
2240.50	0.31	
2242.00	0.31	
2243.50	0.31	
2245.00	0.31	
2246.50	0.31	
2248.00	0.31	
2249.50	0.31	
2251.00	0.31	
2252.50	0.31	
2254.00	0.31	
2255.50	0.30	
2257.00	0.30	
2258.50	0.30	
2260.00	0.30	
2261.50	0.30	
2263.00	0.30	
2264.50	0.30	
2266.00	0.30	
2267.50	0.30	
2269.00	0.30	
2270.50	0.30	
2272.00	0.30	
2273.50	0.29	
2275.00	0.29	
2276.50	0.29	
2278.00	0.29	
2279.50	0.29	
2281.00	0.29	
2282.50	0.29	
2284.00	0.29	
2285.50	0.29	
2287.00	0.29	
2288.50	0.29	
2290.00	0.29	
2291.50	0.29	
2293.00	0.28	
2294.50	0.28	
2296.00	0.28	
2297.50	0.28	
2299.00	0.28	
2300.50	0.28	
2302.00	0.28	
2303.50	0.28	
2305.00	0.28	
2306.50	0.28	
2308.00	0.28	
2309.50	0.28	
2311.00	0.28	
2312.50	0.27	
2314.00	0.27	
2315.50	0.27	
2317.00	0.27	
2318.50	0.27	
2320.00	0.27	
2321.50	0.27	
2323.00	0.27	
2324.50	0.27	
2326.00	0.27	
2327.50	0.27	
2329.00	0.27	
2330.50	0.27	
2332.00	0.27	
2333.50	0.27	
2335.00	0.26	
2336.50	0.26	
2338.00	0.26	
2339.50	0.26	
2341.00	0.26	
2342.50	0.26	
2344.00	0.26	
2345.50	0.26	
2347.00	0.26	
2348.50	0.26	
2350.00	0.26	
2351.50	0.26	
2353.00	0.26	
2354.50	0.26	
2356.00	0.26	
2357.50	0.25	
2359.00	0.25	
2360.50	0.25	
2362.00	0.25	
2363.50	0.25	
2365.00	0.25	
2366.50	0.25	
2368.00	0.25	
2369.50	0.25	
2371.00	0.25	
2372.50	0.25	
2374.00	0.25	
2375.50	0.25	
2377.00	0.25	
2378.50	0.25	
2380.00	0.25	
2381.50	0.25	
2383.00	0.24	
2384.50	0.24	
2386.00	0.24	
2387.50	0.24	
2389.00	0.24	
2390.50	0.24	
2392.00	0.24	
2393.50	0.24	
2395.00	0.24	
2396.50	0.24	
2398.00	0.24	
2399.50	0.24	
2401.00	0.24	
2402.50	0.24	
2404.00	0.24	
2405.50	0.24	
2407.00	0.24	
2408.50	0.24	
2410.00	0.23	
2411.50	0.23	
2413.00	0.23	
2414.50	0.23	
2416.00	0.23	
2417.50	0.23	
2419.00	0.23	
2420.50	0.23	
2422.00	0.23	
2423.50	0.23	
2425.00	0.23	
2426.50	0.23	
2428.00	0.23	
2429.50	0.23	
2431.00	0.23	
2432.50	0.23	
2434.00	0.23	
2435.50	0.23	
2437.00	0.23	
2438.50	0.23	
2440.00	0.22	
2441.50	0.22	
2443.00	0.22	
2444.50	0.22	
2446.00	0.22	
2447.50	0.22	
2449.00	0.22	
2450.50	0.22	
2452.00	0.22	
2453.50	0.22	
2455.00	0.22	
2456.50	0.22	
2458.00	0.22	
2459.50	0.22	
2461.00	0.22	
2462.50	0.22	
2464.00	0.22	
2465.50	0.22	
2467.00	0.22	
2468.50	0.22	
2470.00	0.22	
2471.50	0.22	
2473.00	0.21	
2474.50	0.21	
2476.00	0.21	
2477.50	0.21	
2479.00	0.21	
2480.50	0.21	
2482.00	0.21	
2483.50	0.21	
2485.00	0.21	
2486.50	0.21	
2488.00	0.21	
2489.50	0.21	
2491.00	0.21	
2492.50	0.21	
2494.00	0.21	
2495.50	0.21	
2497.00	0.21	
2498.50	0.21	
2500.00	0.21	
2501.50	0.21	
2503.00	0.21	
2504.50	0.21	
2506.00	0.21	
2507.50	0.20	
2509.00	0.20	
2510.50	0.20	
2512.00	0.20	
2513.50	0.20	
2515.00	0.20	
2516.50	0.20	
2518.00	0.20	
2519.50	0.20	
2521.00	0.20	
2522.50	0.20	
2524.00	0.20	
2525.50	0.20	
2527.00	0.20	
2528.50	0.20	
2530.00	0.20	
2531.50	0.20	
2533.00	0.20	
2534.50	0.20	
2536.00	0.20	
2537.50	0.20	
2539.00	0.20	
2540.50	0.20	
2542.00	0.20	
2543.50	0.20	
2545.00	0.20	
2546.50	0.19	
2548.00	0.19	
2549.50	0.19	
2551.00	0.19	
2552.50	0.19	
2554.00	0.19	
2555.50	0.19	
2557.00	0.19	
2558.50	0.19	
2560.00	0.19	
2561.50	0.19	
2563.00	0.19	
2564.50	0.19	
2566.00	0.19	
2567.50	0.19	
2569.00	0.19	
2570.50	0.19	
2572.00	0.19	
2573.50	0.19	
2575.00	0.19	
2576.50	0.19	
2578.00	0.19	
2579.50	0.19	
2581.00	0.19	
2582.50	0.19	
2584.00	0.19	
2585.50	0.19	
2587.00	0.19	
2588.50	0.19	
2590.00	0.18	
2591.50	0.18	
2593.00	0.18	
2594.50	0.18	
2596.00	0.18	
2597.50	0.18	
2599.00	0.18	
2600.50	0.18	
2602.00	0.18	
2603.50	0.18	
2605.00	0.18	
2606.50	0.18	
2608.00	0.18	
2609.50	0.18	
2611.00	0.18	
2612.50	0.18	
2614.00	0.18	
2615.50	0.18	
2617.00	0.18	
2618.50	0.18	
2620.00	0.18	
2621.50	0.18	
2623.00	0.18	
2624.50	0.18	
2626.00	0.18	
2627.50	0.18	
2629.00	0.18	
2630.50	0.18	
2632.00	0.18	
2633.50	0.18	
2635.00	0.18	
2636.50	0.18	
2638.00	0.18	
2639.50	0.17	
2641.00	0.17	
2642.50	0.17	
2644.00	0.17	
2645.50	0.17	
2647.00	0.17	
2648.50	0.17	
2650.00	0.17	
2651.50	0.17	
2653.00	0.17	
2654.50	0.17	
2656.00	0.17	
2657.50	0.17	
2659.00	0.17	
2660.50	0.17	
2662.00	0.17	
2663.50	0.17	
2665.00	0.17	
2666.50	0.17	
2668.00	0.17	
2669.50	0.17	
2671.00	0.17	
2672.50	0.17	
2674.00	0.17	
2675.50	0.17	
2677.00	0.17	
2678.50	0.17	
2680.00	0.17	
2681.50	0.17	
2683.00	0.17	
2684.50	0.17	
2686.00	0.17	
2687.50	0.17	
2689.00	0.17	
2690.50	0.17	
2692.00	0.17	
2693.50	0.16	
2695.00	0.16	
2696.50	0.16	
2698.00	0.16	
2699.50	0.16	
2701.00	0.16	
2702.50	0.16	
2704.00	0.16	
2705.50	0.16	
2707.00	0.16	
2708.50	0.16	
2710.00	0.16	
2711.50	0.16	
2713.00	0.16	
2714.50	0.16	
2716.00	0.16	
2717.50	0.16	
2719.00	0.16	
2720.50	0.16	
2722.00	0.16	
2723.50	0.16	
2725.00	0.16	
2726.50	0.16	
2728.00	0.16	
2729.50	0.16	
2731.00	0.16	
2732.50	0.16	
2734.00	0.16	
2735.50	0.16	
2737.00	0.16	
2738.50	0.16	
2740.00	0.16	
2741.50	0.16	
2743.00	0.16	
2744.50	0.16	
2746.00	0.16	
2747.50	0.16	
2749.00	0.16	
2750.50	0.16	
2752.00	0.16	
2753.50	0.16	
2755.00	0.16	
2756.50	0.15	
2758.00	0.15	
2759.50	0.15	
2761.00	0.15	
2762.50	0.15	
2764.00	0.15	
2765.50	0.15	
2767.00	0.15	
2768.50	0.15	
2770.00	0.15	
2771.50	0.15	
2773.00	0.15	
2774.50	0.15	
2776.00	0.15	
2777.50	0.15	
2779.00	0.15	
2780.50	0.15	
2782.00	0.15	
2783.50	0.15	
2785.00	0.15	
2786.50	0.15	
2788.00	0.15	
2789.50	0.15	
2791.00	0.15	
2792.50	0.15	
2794.00	0.15	
2795.50	0.15	
2797.00	0.15	
2798.50	0.15	
2800.00	0.15	
2801.50	0.15	
2803.00	0.15	
2804.50	0.15	
2806.00	0.15	
2807.50	0.15	
2809.00	0.15	
2810.50	0.15	
2812.00	0.15	
2813.50	0.15	
2815.00	0.15	
2816.50	0.15	
2818.00	0.15	
2819.50	0.15	
2821.00	0.15	
2822.50	0.15	
2824.00	0.15	
2825.50	0.15	
2827.00	0.14	
2828.50	0.14	
2830.00	0.14	
2831.50	0.14	
2833.00	0.14	
2834.50	0.14	
2836.00	0.14	
2837.50	0.14	
2839.00	0.14	
2840.50	0.14	
2842.00	0.14	
2843.50	0.14	
2845.00	0.14	
2846.50	0.14	
2848.00	0.14	
2849.50	0.14	
2851.00	0.14	
2852.50	0.14	
2854.00	0.14	
2855.50	0.14	
2857.00	0.14	
2858.50	0.14	
2860.00	0.14	
2861.50	0.14	
2863.00	0.14	
2864.50	0.14	
2866.00	0.14	
2867.50	0.14	
2869.00	0.14	
2870.50	0.14	
2872.00	0.14	
2873.50	0.14	
2875.00	0.14	
2876.50	0.14	
2878.00	0.14	
2879.50	0.14	
2881.00	0.14	
2882.50	0.14	
2884.00	0.14	
2885.50	0.14	
2887.00	0.14	
2888.50	0.14	
2890.00	0.14	
2891.50	0.14	
2893.00	0.14	
2894.50	0.14	
2896.00	0.14	
2897.50	0.14	
2899.00	0.14	
2900.50	0.14	
2902.00	0.14	
2903.50	0.14	
2905.00	0.14	
2906.50	0.14	
2908.00	0.14	
2909.50	0.14	
2911.00	0.13	
2912.50	0.13	
2914.00	0.13	
2915.50	0.13	
2917.00	0.13	
2918.50	0.13	
2920.00	0.13	
2921.50	0.13	
2923.00	0.13	
2924.50	0.13	
2926.00	0.13	
2927.50	0.13	
2929.00	0.13	
2930.50	0.13	
2932.00	0.13	
2933.50	0.13	
2935.00	0.13	
2936.50	0.13	
2938.00	0.13	
2939.50	0.13	
2941.00	0.13	
2942.50	0.13	
2944.00	0.13	
2945.50	0.13	
2947.00	0.13	
2948.50	0.13	
2950.00	0.13	
2951.50	0.13	
2953.00	0.13	
2954.50	0.13	
2956.00	0.13	
2957.50	0.13	
2959.00	0.13	
2960.50	0.13	
2962.00	0.13	
2963.50	0.13	
2965.00	0.13	
2966.50	0.13	
2968.00	0.13	
2969.50	0.13	
2971.00	0.13	
2972.50	0.13	
2974.00	0.13	
2975.50	0.13	
2977.00	0.13	
2978.50	0.13	
2980.00	0.13	
2981.50	0.13	
2983.00	0.13	
2984.50	0.13	
2986.00	0.13	
2987.50	0.13	
2989.00	0.13	
2990.50	0.13	
2992.00	0.13	
2993.50	0.13	
2995.00	0.13	
2996.50	0.13	
2998.00	0.13	
2999.50	0.13	
3001.00	0.13	
3002.50	0.13	
3004.00	0.13	
3005.50	0.13	
3007.00	0.13	
3008.50	0.12	
3010.00	0.12	
3011.50	0.12	
3013.00	0.12	
3014.50	0.12	
3016.00	0.12	
3017.50	0.12	
3019.00	0.12	
3020.50	0.12	
3022.00	0.12	
3023.50	0.12	
3025.00	0.12	
3026.50	0.12	
3028.00	0.12	
3029.50	0.12	
3031.00	0.12	
3032.50	0.12	
3034.00	0.12	
3035.50	0.12	
3037.00	0.12	
3038.50	0.12	
3040.00	0.12	
3041.50	0.12	
3043.00	0.12	
3044.50	0.12	
3046.00	0.12	
3047.50	0.12	
3049.00	0.12	
3050.50	0.12	
3052.00	0.12	
3053.50	0.12	
3055.00	0.12	
3056.50	0.12	
3058.00	0.12	
3059.50	0.12	
3061.00	0.12	
3062.50	0.12	
3064.00	0.12	
3065.50	0.12	
3067.00	0.12	
3068.50	0.12	
3070.00	0.12	
3071.50	0.12	
3073.00	0.12	
3074.50	0.12	
3076.00	0.12	
3077.50	0.12	
3079.00	0.12	
3080.50	0.12	
3082.00	0.12	
3083.50	0.12	
3085.00	0.12	
3086.50	0.12	
3088.00	0.12	
3089.50	0.12	
3091.00	0.12	
3092.50	0.12	
3094.00	0.12	
3095.50	0.12	
3097.00	0.12	
3098.50	0.12	
3100.00	0.12	
3101.50	0.12	
3103.00	0.12	
3104.50	0.12	
3106.00	0.12	
3107.50	0.12	
3109.00	0.12	
3110.50	0.12	
3112.00	0.12	
3113.50	0.12	
3115.00	0.12	
3116.50	0.12	
3118.00	0.12	
3119.50	0.12	
3121.00	0.12	
3122.50	0.12	
3124.00	0.12	
3125.50	0.11	
3127.00	0.11	
3128.50	0.11	
3130.00	0.11	
3131.50	0.11	
3133.00	0.11	
3134.50	0.11	
3136.00	0.11	
3137.50	0.11	
3139.00	0.11	
3140.50	0.11	
3142.00	0.11	
3143.50	0.11	
3145.00	0.11	
3146.50	0.11	
3148.00	0.11	
3149.50	0.11	
3151.00	0.11	
3152.50	0.11	
3154.00	0.11	
3155.50	0.11	
3157.00	0.11	
3158.50	0.11	
3160.00	0.11	
3161.50	0.11	
3163.00	0.11	
3164.50	0.11	
3166.00	0.11	
3167.50	0.11	
3169.00	0.11	
3170.50	0.11	
3172.00	0.11	
3173.50	0.11	
3175.00	0.11	
3176.50	0.11	
3178.00	0.11	
3179.50	0.11	
3181.00	0.11	
3182.50	0.11	
3184.00	0.11	
3185.50	0.11	
3187.00	0.11	
3188.50	0.11	
3190.00	0.11	
3191.50	0.11	
3193.00	0.11	
3194.50	0.11	
3196.00	0.11	
3197.50	0.11	
3199.00	0.11	
3200.50	0.11	
3202.00	0.11	
3203.50	0.11	
3205.00	0.11	
3206.50	0.11	
3208.00	0.11	
3209.50	0.11	
3211.00	0.11	
3212.50	0.11	
3214.00	0.11	
3215.50	0.11	
3217.00	0.11	
3218.50	0.11	
3220.00	0.11	
3221.50	0.11	
3223.00	0.11	
3224.50	0.11	
3226.00	0.11	
3227.50	0.11	
3229.00	0.11	
3230.50	0.11	
3232.00	0.11	
3233.50	0.11	
3235.00	0.11	
3236.50	0.11	
3238.00	0.11	
3239.50	0.11	
3241.00	0.11	
3242.50	0.11	
3244.00	0.11	
3245.50	0.11	
3247.00	0.11	
3248.50	0.11	
3250.00	0.11	
3251.50	0.11	
3253.00	0.11	
3254.50	0.11	
3256.00	0.11	
3257.50	0.11	
3259.00	0.11	
3260.50	0.11	
3262.00	0.11	
3263.50	0.11	
3265.00	0.11	
3266.50	0.10	
3268.00	0.10	
3269.50	0.10	
3271.00	0.10	
3272.50	0.10	
3274.00	0.10	
3275.50	0.10	
3277.00	0.10	
3278.50	0.10	
3280.00	0.10	
3281.50	0.10	
3283.00	0.10	
3284.50	0.10	
3286.00	0.10	
3287.50	0.10	
3289.00	0.10	
3290.50	0.10	
3292.00	0.10	
3293.50	0.10	
3295.00	0.10	
3296.50	0.10	
3298.00	0.10	
3299.50	0.10	
3301.00	0.10	
3302.50	0.10	
3304.00	0.10	
3305.50	0.10	
3307.00	0.10	
3308.50	0.10	
3310.00	0.10	
3311.50	0.10	
3313.00	0.10	
3314.50	0.10	
3316.00	0.10	
3317.50	0.10	
3319.00	0.10	
3320.50	0.10	
3322.00	0.10	
3323.50	0.10	
3325.00	0.10	
3326.50	0.10	
3328.00	0.10	
3329.50	0.10	
3331.00	0.10	
3332.50	0.10	
3334.00	0.10	
3335.50	0.10	
3337.00	0.10	
3338.50	0.10	
3340.00	0.10	
3341.50	0.10	
3343.00	0.10	
3344.50	0.10	
3346.00	0.10	
3347.50	0.10	
3349.00	0.10	
3350.50	0.10	
3352.00	0.10	
3353.50	0.10	
3355.00	0.10	
3356.50	0.10	
3358.00	0.10	
3359.50	0.10	
3361.00	0.10	
3362.50	0.10	
3364.00	0.10	
3365.50	0.10	
3367.00	0.10	
3368.50	0.10	
3370.00	0.10	
3371.50	0.10	
3373.00	0.10	
3374.50	0.10	
3376.00	0.10	
3377.50	0.10	
3379.00	0.10	
3380.50	0.10	
3382.00	0.10	
3383.50	0.10	
3385.00	0.10	
3386.50	0.10	
3388.00	0.10	
3389.50	0.10	
3391.00	0.10	
3392.50	0.10	
3394.00	0.10	
3395.50	0.10	
3397.00	0.10	
3398.50	0.10	
3400.00	0.10	
3401.50	0.10	
3403.00	0.10	
3404.50	0.10	
3406.00	0.10	
3407.50	0.10	
3409.00	0.10	
3410.50	0.10	
3412.00	0.10	
3413.50	0.10	
3415.00	0.10	
3416.50	0.10	
3418.00	0.10	
3419.50	0.10	
3421.00	0.10	
3422.50	0.10	
3424.00	0.10	
3425.50	0.10	
3427.00	0.10	
3428.50	0.10	
3430.00	0.10	
3431.50	0.10	
3433.00	0.10	
3434.50	0.10	
3436.00	0.10	
3437.50	0.10	
3439.00	0.10	
3440.50	0.09	
3442.00	0.09	
3443.50	0.09	
3445.00	0.09	
3446.50	0.09	
3448.00	0.09	
3449.50	0.09	
3451.00	0.09	
3452.50	0.09	
3454.00	0.09	
3455.50	0.09	
3457.00	0.09	
3458.50	0.09	
3460.00	0.09	
3461.50	0.09	
3463.00	0.09	
3464.50	0.09	
3466.00	0.09	
3467.50	0.09	
3469.00	0.09	
3470.50	0.09	
3472.00	0.09	
3473.50	0.09	
3475.00	0.09	
3476.50	0.09	
3478.00	0.09	
3479.50	0.09	
3481.00	0.09	
3482.50	0.09	
3484.00	0.09	
3485.50	0.09	
3487.00	0.09	
3488.50	0.09	
3490.00	0.09	
3491.50	0.09	
3493.00	0.09	
3494.50	0.09	
3496.00	0.09	
3497.50	0.09	
3499.00	0.09	
3500.50	0.09	
3502.00	0.09	
3503.50	0.09	
3505.00	0.09	
3506.50	0.09	
3508.00	0.09	
3509.50	0.09	
3511.00	0.09	
3512.50	0.09	
3514.00	0.09	
3515.50	0.09	
3517.00	0.09	
3518.50	0.09	
3520.00	0.09	
3521.50	0.09	
3523.00	0.09	
3524.50	0.09	
3526.00	0.09	
3527.50	0.09	
3529.00	0.09	
3530.50	0.09	
3532.00	0.09	
3533.50	0.09	
3535.00	0.09	
3536.50	0.09	
3538.00	0.09	
3539.50	0.09	
3541.00	0.09	
3542.50	0.09	
3544.00	0.09	
3545.50	0.09	
3547.00	0.09	
3548.50	0.09	
3550.00	0.09	
3551.50	0.09	
3553.00	0.09	
3554.50	0.09	
3556.00	0.09	
3557.50	0.09	
3559.00	0.09	
3560.50	0.09	
3562.00	0.09	
3563.50	0.09	
3565.00	0.09	
3566.50	0.09	
3568.00	0.09	
3569.50	0.09	
3571.00	0.09	
3572.50	0.09	
3574.00	0.09	
3575.50	0.09	
3577.00	0.09	
3578.50	0.09	
3580.00	0.09	
3581.50	0.09	
3583.00	0.09	
3584.50	0.09	
3586.00	0.09	
3587.50	0.09	
3589.00	0.09	
3590.50	0.09	
3592.00	0.09	
3593.50	0.09	
3595.00	0.09	
3596.50	0.09	
3598.00	0.09	
3599.50	0.09	
3601.00	0.09	
3602.50	0.09	
3604.00	0.09	
3605.50	0.09	
3607.00	0.09	
3608.50	0.09	
3610.00	0.09	
3611.50	0.09	
3613.00	0.09	
3614.50	0.09	
3616.00	0.09	
3617.50	0.09	
3619.00	0.09	
3620.50	0.09	
3622.00	0.09	
3623.50	0.09	
3625.00	0.09	
3626.50	0.09	
3628.00	0.09	
3629.50	0.09	
3631.00	0.09	
3632.50	0.09	
3634.00	0.09	
3635.50	0.09	
3637.00	0.09	
3638.50	0.09	
3640.00	0.09	
3641.50	0.09	
3643.00	0.09	
3644.50	0.09	
3646.00	0.09	
3647.50	0.09	
3649.00	0.09	
3650.50	0.09	
3652.00	0.09	
3653.50	0.09	
3655.00	0.09	
3656.50	0.09	
3658.00	0.09	
3659.50	0.09	
3661.00	0.08	
3662.50	0.08	
3664.00	0.08	
3665.50	0.08	
3667.00	0.08	
3668.50	0.08	
3670.00	0.08	
3671.50	0.08	
3673.00	0.08	
3674.50	0.08	
3676.00	0.08	
3677.50	0.08	
3679.00	0.08	
3680.50	0.08	
3682.00	0.08	
3683.50	0.08	
3685.00	0.08	
3686.50	0.08	
3688.00	0.08	
3689.50	0.08	
3691.00	0.08	
3692.50	0.08	
3694.00	0.08	
3695.50	0.08	
3697.00	0.08	
3698.50	0.08	
3700.00	0.08	
3701.50	0.08	
3703.00	0.08	
3704.50	0.08	
3706.00	0.08	
3707.50	0.08	
3709.00	0.08	
3710.50	0.08	
3712.00	0.08	
3713.50	0.08	
3715.00	0.08	
3716.50	0.08	
3718.00	0.08	
3719.50	0.08	
3721.00	0.08	
3722.50	0.08	
3724.00	0.08	
3725.50	0.08	
3727.00	0.08	
3728.50	0.08	
3730.00	0.08	
3731.50	0.08	
3733.00	0.08	
3734.50	0.08	
3736.00	0.08	
3737.50	0.08	
3739.00	0.08	
3740.50	0.08	
3742.00	0.08	
3743.50	0.08	
3745.00	0.08	
3746.50	0.08	
3748.00	0.08	
3749.50	0.08	
3751.00	0.08	
3752.50	0.08	
3754.00	0.08	
3755.50	0.08	
3757.00	0.08	
3758.50	0.08	
3760.00	0.08	
3761.50	0.08	
3763.00	0.08	
3764.50	0.08	
3766.00	0.08	
3767.50	0.08	
3769.00	0.08	
3770.50	0.08	
3772.00	0.08	
3773.50	0.08	
3775.00	0.08	
3776.50	0.08	
3778.00	0.08	
3779.50	0.08	
3781.00	0.08	
3782.50	0.08	
3784.00	0.08	
3785.50	0.08	
3787.00	0.08	
3788.50	0.08	
3790.00	0.08	
3791.50	0.08	
3793.00	0.08	
3794.50	0.08	
3796.00	0.08	
3797.50	0.08	
3799.00	0.08	
3800.50	0.08	
3802.00	0.08	
3803.50	0.08	
3805.00	0.08	
3806.50	0.08	
3808.00	0.08	
3809.50	0.08	
3811.00	0.08	
3812.50	0.08	
3814.00	0.08	
3815.50	0.08	
3817.00	0.08	
3818.50	0.08	
3820.00	0.08	
3821.50	0.08	
3823.00	0.08	
3824.50	0.08	
3826.00	0.08	
3827.50	0.08	
3829.00	0.08	
3830.50	0.08	
3832.00	0.08	
3833.50	0.08	
3835.00	0.08	
3836.50	0.08	
3838.00	0.08	
3839.50	0.08	
3841.00	0.08	
3842.50	0.08	
3844.00	0.08	
3845.50	0.08	
3847.00	0.08	
3848.50	0.08	
3850.00	0.08	
3851.50	0.08	
3853.00	0.08	
3854.50	0.08	
3856.00	0.08	
3857.50	0.08	
3859.00	0.08	
3860.50	0.08	
3862.00	0.08	
3863.50	0.08	
3865.00	0.08	
3866.50	0.08	
3868.00	0.08	
3869.50	0.08	
3871.00	0.08	
3872.50	0.08	
3874.00	0.08	
3875.50	0.08	
3877.00	0.08	
3878.50	0.08	
3880.00	0.08	
3881.50	0.08	
3883.00	0.08	
3884.50	0.08	
3886.00	0.08	
3887.50	0.08	
3889.00	0.08	
3890.50	0.08	
3892.00	0.08	
3893.50	0.08	
3895.00	0.08	
3896.50	0.08	
3898.00	0.08	
3899.50	0.08	
3901.00	0.08	
3902.50	0.08	
3904.00	0.08	
3905.50	0.08	
3907.00	0.08	
3908.50	0.08	
3910.00	0.08	
3911.50	0.08	
3913.00	0.08	
3914.50	0.08	
3916.00	0.08	
3917.50	0.08	
3919.00	0.08	
3920.50	0.08	
3922.00	0.08	
3923.50	0.08	
3925.00	0.08	
3926.50	0.08	
3928.00	0.08	
3929.50	0.08	
3931.00	0.08	
3932.50	0.08	
3934.00	0.08	
3935.50	0.08	
3937.00	0.08	
3938.50	0.08	
3940.00	0.08	
3941.50	0.08	
3943.00	0.08	
3944.50	0.08	
3946.00	0.08	
3947.50	0.07	
3949.00	0.07	
3950.50	0.07	
3952.00	0.07	
3953.50	0.07	
3955.00	0.07	
3956.50	0.07	
3958.00	0.07	
3959.50	0.07	
3961.00	0.07	
3962.50	0.07	
3964.00	0.07	
3965.50	0.07	
3967.00	0.07	
3968.50	0.07	
3970.00	0.07	
3971.50	0.07	
3973.00	0.07	
3974.50	0.07	
3976.00	0.07	
3977.50	0.07	
3979.00	0.07	
3980.50	0.07	
3982.00	0.07	
3983.50	0.07	
3985.00	0.07	
3986.50	0.07	
3988.00	0.07	
3989.50	0.07	
3991.00	0.07	
3992.50	0.07	
3994.00	0.07	
3995.50	0.07	
3997.00	0.07	
3998.50	0.07	
4000.00	0.07	
