 Frequency [Hz] - Resonance Curve	Volatge [V] - Resonance Curve	
1002.50	0.33	
1005.00	0.33	
1007.50	0.32	
1010.00	0.32	
1012.50	0.32	
1015.00	0.32	
1017.50	0.32	
1020.00	0.32	
1022.50	0.32	
1025.00	0.32	
1027.50	0.31	
1030.00	0.31	
1032.50	0.31	
1035.00	0.31	
1037.50	0.31	
1040.00	0.31	
1042.50	0.31	
1045.00	0.30	
1047.50	0.30	
1050.00	0.30	
1052.50	0.30	
1055.00	0.30	
1057.50	0.30	
1060.00	0.30	
1062.50	0.30	
1065.00	0.29	
1067.50	0.29	
1070.00	0.29	
1072.50	0.29	
1075.00	0.29	
1077.50	0.29	
1080.00	0.29	
1082.50	0.29	
1085.00	0.28	
1087.50	0.28	
1090.00	0.28	
1092.50	0.28	
1095.00	0.28	
1097.50	0.28	
1100.00	0.28	
1102.50	0.28	
1105.00	0.27	
1107.50	0.27	
1110.00	0.27	
1112.50	0.27	
1115.00	0.27	
1117.50	0.27	
1120.00	0.27	
1122.50	0.27	
1125.00	0.27	
1127.50	0.26	
1130.00	0.26	
1132.50	0.26	
1135.00	0.26	
1137.50	0.26	
1140.00	0.26	
1142.50	0.26	
1145.00	0.26	
1147.50	0.26	
1150.00	0.25	
1152.50	0.25	
1155.00	0.25	
1157.50	0.25	
1160.00	0.25	
1162.50	0.25	
1165.00	0.25	
1167.50	0.25	
1170.00	0.24	
1172.50	0.24	
1175.00	0.24	
1177.50	0.24	
1180.00	0.24	
1182.50	0.24	
1185.00	0.24	
1187.50	0.24	
1190.00	0.24	
1192.50	0.24	
1195.00	0.23	
1197.50	0.23	
1200.00	0.23	
1202.50	0.23	
1205.00	0.23	
1207.50	0.23	
1210.00	0.23	
1212.50	0.23	
1215.00	0.23	
1217.50	0.22	
1220.00	0.22	
1222.50	0.22	
1225.00	0.22	
1227.50	0.22	
1230.00	0.22	
1232.50	0.22	
1235.00	0.22	
1237.50	0.22	
1240.00	0.22	
1242.50	0.21	
1245.00	0.21	
1247.50	0.21	
1250.00	0.21	
1252.50	0.21	
1255.00	0.21	
1257.50	0.21	
1260.00	0.21	
1262.50	0.21	
1265.00	0.20	
1267.50	0.20	
1270.00	0.20	
1272.50	0.20	
1275.00	0.20	
1277.50	0.20	
1280.00	0.20	
1282.50	0.20	
1285.00	0.20	
1287.50	0.20	
1290.00	0.20	
1292.50	0.19	
1295.00	0.19	
1297.50	0.19	
1300.00	0.19	
1302.50	0.19	
1305.00	0.19	
1307.50	0.19	
1310.00	0.19	
1312.50	0.19	
1315.00	0.19	
1317.50	0.18	
1320.00	0.18	
1322.50	0.18	
1325.00	0.18	
1327.50	0.18	
1330.00	0.18	
1332.50	0.18	
1335.00	0.18	
1337.50	0.18	
1340.00	0.18	
1342.50	0.18	
1345.00	0.17	
1347.50	0.17	
1350.00	0.17	
1352.50	0.17	
1355.00	0.17	
1357.50	0.17	
1360.00	0.17	
1362.50	0.17	
1365.00	0.17	
1367.50	0.17	
1370.00	0.17	
1372.50	0.16	
1375.00	0.16	
1377.50	0.16	
1380.00	0.16	
1382.50	0.16	
1385.00	0.16	
1387.50	0.16	
1390.00	0.16	
1392.50	0.16	
1395.00	0.16	
1397.50	0.16	
1400.00	0.15	
1402.50	0.15	
1405.00	0.15	
1407.50	0.15	
1410.00	0.15	
1412.50	0.15	
1415.00	0.15	
1417.50	0.15	
1420.00	0.15	
1422.50	0.15	
1425.00	0.15	
1427.50	0.15	
1430.00	0.14	
1432.50	0.14	
1435.00	0.14	
1437.50	0.14	
1440.00	0.14	
1442.50	0.14	
1445.00	0.14	
1447.50	0.14	
1450.00	0.14	
1452.50	0.14	
1455.00	0.14	
1457.50	0.13	
1460.00	0.13	
1462.50	0.13	
1465.00	0.13	
1467.50	0.13	
1470.00	0.13	
1472.50	0.13	
1475.00	0.13	
1477.50	0.13	
1480.00	0.13	
1482.50	0.13	
1485.00	0.13	
1487.50	0.13	
1490.00	0.12	
1492.50	0.12	
1495.00	0.12	
1497.50	0.12	
1500.00	0.12	
1502.50	0.12	
1505.00	0.12	
1507.50	0.12	
1510.00	0.12	
1512.50	0.12	
1515.00	0.12	
1517.50	0.12	
1520.00	0.11	
1522.50	0.11	
1525.00	0.11	
1527.50	0.11	
1530.00	0.11	
1532.50	0.11	
1535.00	0.11	
1537.50	0.11	
1540.00	0.11	
1542.50	0.11	
1545.00	0.11	
1547.50	0.11	
1550.00	0.11	
1552.50	0.10	
1555.00	0.10	
1557.50	0.10	
1560.00	0.10	
1562.50	0.10	
1565.00	0.10	
1567.50	0.10	
1570.00	0.10	
1572.50	0.10	
1575.00	0.10	
1577.50	0.10	
1580.00	0.10	
1582.50	0.10	
1585.00	0.09	
1587.50	0.09	
1590.00	0.09	
1592.50	0.09	
1595.00	0.09	
1597.50	0.09	
1600.00	0.09	
1602.50	0.09	
1605.00	0.09	
1607.50	0.09	
1610.00	0.09	
1612.50	0.09	
1615.00	0.09	
1617.50	0.08	
1620.00	0.08	
1622.50	0.08	
1625.00	0.08	
1627.50	0.08	
1630.00	0.08	
1632.50	0.08	
1635.00	0.08	
1637.50	0.08	
1640.00	0.08	
1642.50	0.08	
1645.00	0.08	
1647.50	0.08	
1650.00	0.08	
1652.50	0.07	
1655.00	0.07	
1657.50	0.07	
1660.00	0.07	
1662.50	0.07	
1665.00	0.07	
1667.50	0.07	
1670.00	0.07	
1672.50	0.07	
1675.00	0.07	
1677.50	0.07	
1680.00	0.07	
1682.50	0.07	
1685.00	0.07	
1687.50	0.06	
1690.00	0.06	
1692.50	0.06	
1695.00	0.06	
1697.50	0.06	
1700.00	0.06	
1702.50	0.06	
1705.00	0.06	
1707.50	0.06	
1710.00	0.06	
1712.50	0.06	
1715.00	0.06	
1717.50	0.06	
1720.00	0.06	
1722.50	0.06	
1725.00	0.05	
1727.50	0.05	
1730.00	0.05	
1732.50	0.05	
1735.00	0.05	
1737.50	0.05	
1740.00	0.05	
1742.50	0.05	
1745.00	0.05	
1747.50	0.05	
1750.00	0.05	
1752.50	0.05	
1755.00	0.05	
1757.50	0.05	
1760.00	0.04	
1762.50	0.04	
1765.00	0.04	
1767.50	0.04	
1770.00	0.04	
1772.50	0.04	
1775.00	0.04	
1777.50	0.04	
1780.00	0.04	
1782.50	0.04	
1785.00	0.04	
1787.50	0.04	
1790.00	0.04	
1792.50	0.04	
1795.00	0.04	
1797.50	0.03	
1800.00	0.03	
1802.50	0.03	
1805.00	0.03	
1807.50	0.03	
1810.00	0.03	
1812.50	0.03	
1815.00	0.03	
1817.50	0.03	
1820.00	0.03	
1822.50	0.03	
1825.00	0.03	
1827.50	0.03	
1830.00	0.03	
1832.50	0.03	
1835.00	0.03	
1837.50	0.02	
1840.00	0.02	
1842.50	0.02	
1845.00	0.02	
1847.50	0.02	
1850.00	0.02	
1852.50	0.02	
1855.00	0.02	
1857.50	0.02	
1860.00	0.02	
1862.50	0.02	
1865.00	0.02	
1867.50	0.02	
1870.00	0.02	
1872.50	0.02	
1875.00	0.02	
1877.50	0.01	
1880.00	0.01	
1882.50	0.01	
1885.00	0.01	
1887.50	0.01	
1890.00	0.01	
1892.50	0.01	
1895.00	0.01	
1897.50	0.01	
1900.00	0.01	
1902.50	0.01	
1905.00	0.01	
1907.50	0.01	
1910.00	0.01	
1912.50	0.01	
1915.00	0.01	
1917.50	0.00	
1920.00	0.00	
1922.50	0.00	
1925.00	0.00	
1927.50	0.00	
1930.00	0.00	
1932.50	0.00	
1935.00	0.00	
1937.50	0.00	
1940.00	0.00	
1942.50	0.00	
1945.00	0.00	
1947.50	0.00	
1950.00	0.00	
1952.50	0.00	
1955.00	0.00	
1957.50	0.01	
1960.00	0.01	
1962.50	0.01	
1965.00	0.01	
1967.50	0.01	
1970.00	0.01	
1972.50	0.01	
1975.00	0.01	
1977.50	0.01	
1980.00	0.01	
1982.50	0.01	
1985.00	0.01	
1987.50	0.01	
1990.00	0.01	
1992.50	0.01	
1995.00	0.01	
1997.50	0.01	
2000.00	0.02	
2002.50	0.02	
2005.00	0.02	
2007.50	0.02	
2010.00	0.02	
2012.50	0.02	
2015.00	0.02	
2017.50	0.02	
2020.00	0.02	
2022.50	0.02	
2025.00	0.02	
2027.50	0.02	
2030.00	0.02	
2032.50	0.02	
2035.00	0.02	
2037.50	0.02	
2040.00	0.02	
2042.50	0.03	
2045.00	0.03	
2047.50	0.03	
2050.00	0.03	
2052.50	0.03	
2055.00	0.03	
2057.50	0.03	
2060.00	0.03	
2062.50	0.03	
2065.00	0.03	
2067.50	0.03	
2070.00	0.03	
2072.50	0.03	
2075.00	0.03	
2077.50	0.03	
2080.00	0.03	
2082.50	0.03	
2085.00	0.03	
2087.50	0.04	
2090.00	0.04	
2092.50	0.04	
2095.00	0.04	
2097.50	0.04	
2100.00	0.04	
2102.50	0.04	
2105.00	0.04	
2107.50	0.04	
2110.00	0.04	
2112.50	0.04	
2115.00	0.04	
2117.50	0.04	
2120.00	0.04	
2122.50	0.04	
2125.00	0.04	
2127.50	0.04	
2130.00	0.04	
2132.50	0.05	
2135.00	0.05	
2137.50	0.05	
2140.00	0.05	
2142.50	0.05	
2145.00	0.05	
2147.50	0.05	
2150.00	0.05	
2152.50	0.05	
2155.00	0.05	
2157.50	0.05	
2160.00	0.05	
2162.50	0.05	
2165.00	0.05	
2167.50	0.05	
2170.00	0.05	
2172.50	0.05	
2175.00	0.05	
2177.50	0.06	
2180.00	0.06	
2182.50	0.06	
2185.00	0.06	
2187.50	0.06	
2190.00	0.06	
2192.50	0.06	
2195.00	0.06	
2197.50	0.06	
2200.00	0.06	
2202.50	0.06	
2205.00	0.06	
2207.50	0.06	
2210.00	0.06	
2212.50	0.06	
2215.00	0.06	
2217.50	0.06	
2220.00	0.06	
2222.50	0.06	
2225.00	0.07	
2227.50	0.07	
2230.00	0.07	
2232.50	0.07	
2235.00	0.07	
2237.50	0.07	
2240.00	0.07	
2242.50	0.07	
2245.00	0.07	
2247.50	0.07	
2250.00	0.07	
2252.50	0.07	
2255.00	0.07	
2257.50	0.07	
2260.00	0.07	
2262.50	0.07	
2265.00	0.07	
2267.50	0.07	
2270.00	0.07	
2272.50	0.08	
2275.00	0.08	
2277.50	0.08	
2280.00	0.08	
2282.50	0.08	
2285.00	0.08	
2287.50	0.08	
2290.00	0.08	
2292.50	0.08	
2295.00	0.08	
2297.50	0.08	
2300.00	0.08	
2302.50	0.08	
2305.00	0.08	
2307.50	0.08	
2310.00	0.08	
2312.50	0.08	
2315.00	0.08	
2317.50	0.08	
2320.00	0.09	
2322.50	0.09	
2325.00	0.09	
2327.50	0.09	
2330.00	0.09	
2332.50	0.09	
2335.00	0.09	
2337.50	0.09	
2340.00	0.09	
2342.50	0.09	
2345.00	0.09	
2347.50	0.09	
2350.00	0.09	
2352.50	0.09	
2355.00	0.09	
2357.50	0.09	
2360.00	0.09	
2362.50	0.09	
2365.00	0.09	
2367.50	0.09	
2370.00	0.10	
2372.50	0.10	
2375.00	0.10	
2377.50	0.10	
2380.00	0.10	
2382.50	0.10	
2385.00	0.10	
2387.50	0.10	
2390.00	0.10	
2392.50	0.10	
2395.00	0.10	
2397.50	0.10	
2400.00	0.10	
2402.50	0.10	
2405.00	0.10	
2407.50	0.10	
2410.00	0.10	
2412.50	0.10	
2415.00	0.10	
2417.50	0.10	
2420.00	0.11	
2422.50	0.11	
2425.00	0.11	
2427.50	0.11	
2430.00	0.11	
2432.50	0.11	
2435.00	0.11	
2437.50	0.11	
2440.00	0.11	
2442.50	0.11	
2445.00	0.11	
2447.50	0.11	
2450.00	0.11	
2452.50	0.11	
2455.00	0.11	
2457.50	0.11	
2460.00	0.11	
2462.50	0.11	
2465.00	0.11	
2467.50	0.11	
2470.00	0.12	
2472.50	0.12	
2475.00	0.12	
2477.50	0.12	
2480.00	0.12	
2482.50	0.12	
2485.00	0.12	
2487.50	0.12	
2490.00	0.12	
2492.50	0.12	
2495.00	0.12	
2497.50	0.12	
2500.00	0.12	
2502.50	0.12	
2505.00	0.12	
2507.50	0.12	
2510.00	0.12	
2512.50	0.12	
2515.00	0.12	
2517.50	0.12	
2520.00	0.12	
2522.50	0.13	
2525.00	0.13	
2527.50	0.13	
2530.00	0.13	
2532.50	0.13	
2535.00	0.13	
2537.50	0.13	
2540.00	0.13	
2542.50	0.13	
2545.00	0.13	
2547.50	0.13	
2550.00	0.13	
2552.50	0.13	
2555.00	0.13	
2557.50	0.13	
2560.00	0.13	
2562.50	0.13	
2565.00	0.13	
2567.50	0.13	
2570.00	0.13	
2572.50	0.13	
2575.00	0.14	
2577.50	0.14	
2580.00	0.14	
2582.50	0.14	
2585.00	0.14	
2587.50	0.14	
2590.00	0.14	
2592.50	0.14	
2595.00	0.14	
2597.50	0.14	
2600.00	0.14	
2602.50	0.14	
2605.00	0.14	
2607.50	0.14	
2610.00	0.14	
2612.50	0.14	
2615.00	0.14	
2617.50	0.14	
2620.00	0.14	
2622.50	0.14	
2625.00	0.14	
2627.50	0.15	
2630.00	0.15	
2632.50	0.15	
2635.00	0.15	
2637.50	0.15	
2640.00	0.15	
2642.50	0.15	
2645.00	0.15	
2647.50	0.15	
2650.00	0.15	
2652.50	0.15	
2655.00	0.15	
2657.50	0.15	
2660.00	0.15	
2662.50	0.15	
2665.00	0.15	
2667.50	0.15	
2670.00	0.15	
2672.50	0.15	
2675.00	0.15	
2677.50	0.15	
2680.00	0.15	
2682.50	0.16	
2685.00	0.16	
2687.50	0.16	
2690.00	0.16	
2692.50	0.16	
2695.00	0.16	
2697.50	0.16	
2700.00	0.16	
2702.50	0.16	
2705.00	0.16	
2707.50	0.16	
2710.00	0.16	
2712.50	0.16	
2715.00	0.16	
2717.50	0.16	
2720.00	0.16	
2722.50	0.16	
2725.00	0.16	
2727.50	0.16	
2730.00	0.16	
2732.50	0.16	
2735.00	0.16	
2737.50	0.17	
2740.00	0.17	
2742.50	0.17	
2745.00	0.17	
2747.50	0.17	
2750.00	0.17	
2752.50	0.17	
2755.00	0.17	
2757.50	0.17	
2760.00	0.17	
2762.50	0.17	
2765.00	0.17	
2767.50	0.17	
2770.00	0.17	
2772.50	0.17	
2775.00	0.17	
2777.50	0.17	
2780.00	0.17	
2782.50	0.17	
2785.00	0.17	
2787.50	0.17	
2790.00	0.17	
2792.50	0.18	
2795.00	0.18	
2797.50	0.18	
2800.00	0.18	
2802.50	0.18	
2805.00	0.18	
2807.50	0.18	
2810.00	0.18	
2812.50	0.18	
2815.00	0.18	
2817.50	0.18	
2820.00	0.18	
2822.50	0.18	
2825.00	0.18	
2827.50	0.18	
2830.00	0.18	
2832.50	0.18	
2835.00	0.18	
2837.50	0.18	
2840.00	0.18	
2842.50	0.18	
2845.00	0.18	
2847.50	0.18	
2850.00	0.19	
2852.50	0.19	
2855.00	0.19	
2857.50	0.19	
2860.00	0.19	
2862.50	0.19	
2865.00	0.19	
2867.50	0.19	
2870.00	0.19	
2872.50	0.19	
2875.00	0.19	
2877.50	0.19	
2880.00	0.19	
2882.50	0.19	
2885.00	0.19	
2887.50	0.19	
2890.00	0.19	
2892.50	0.19	
2895.00	0.19	
2897.50	0.19	
2900.00	0.19	
2902.50	0.19	
2905.00	0.19	
2907.50	0.20	
2910.00	0.20	
2912.50	0.20	
2915.00	0.20	
2917.50	0.20	
2920.00	0.20	
2922.50	0.20	
2925.00	0.20	
2927.50	0.20	
2930.00	0.20	
2932.50	0.20	
2935.00	0.20	
2937.50	0.20	
2940.00	0.20	
2942.50	0.20	
2945.00	0.20	
2947.50	0.20	
2950.00	0.20	
2952.50	0.20	
2955.00	0.20	
2957.50	0.20	
2960.00	0.20	
2962.50	0.20	
2965.00	0.21	
2967.50	0.21	
2970.00	0.21	
2972.50	0.21	
2975.00	0.21	
2977.50	0.21	
2980.00	0.21	
2982.50	0.21	
2985.00	0.21	
2987.50	0.21	
2990.00	0.21	
2992.50	0.21	
2995.00	0.21	
2997.50	0.21	
3000.00	0.21	
3002.50	0.21	
3005.00	0.21	
3007.50	0.21	
3010.00	0.21	
3012.50	0.21	
3015.00	0.21	
3017.50	0.21	
3020.00	0.21	
3022.50	0.21	
3025.00	0.22	
3027.50	0.22	
3030.00	0.22	
3032.50	0.22	
3035.00	0.22	
3037.50	0.22	
3040.00	0.22	
3042.50	0.22	
3045.00	0.22	
3047.50	0.22	
3050.00	0.22	
3052.50	0.22	
3055.00	0.22	
3057.50	0.22	
3060.00	0.22	
3062.50	0.22	
3065.00	0.22	
3067.50	0.22	
3070.00	0.22	
3072.50	0.22	
3075.00	0.22	
3077.50	0.22	
3080.00	0.22	
3082.50	0.22	
3085.00	0.23	
3087.50	0.23	
3090.00	0.23	
3092.50	0.23	
3095.00	0.23	
3097.50	0.23	
3100.00	0.23	
3102.50	0.23	
3105.00	0.23	
3107.50	0.23	
3110.00	0.23	
3112.50	0.23	
3115.00	0.23	
3117.50	0.23	
3120.00	0.23	
3122.50	0.23	
3125.00	0.23	
3127.50	0.23	
3130.00	0.23	
3132.50	0.23	
3135.00	0.23	
3137.50	0.23	
3140.00	0.23	
3142.50	0.23	
3145.00	0.24	
3147.50	0.24	
3150.00	0.24	
3152.50	0.24	
3155.00	0.24	
3157.50	0.24	
3160.00	0.24	
3162.50	0.24	
3165.00	0.24	
3167.50	0.24	
3170.00	0.24	
3172.50	0.24	
3175.00	0.24	
3177.50	0.24	
3180.00	0.24	
3182.50	0.24	
3185.00	0.24	
3187.50	0.24	
3190.00	0.24	
3192.50	0.24	
3195.00	0.24	
3197.50	0.24	
3200.00	0.24	
3202.50	0.24	
3205.00	0.24	
3207.50	0.25	
3210.00	0.25	
3212.50	0.25	
3215.00	0.25	
3217.50	0.25	
3220.00	0.25	
3222.50	0.25	
3225.00	0.25	
3227.50	0.25	
3230.00	0.25	
3232.50	0.25	
3235.00	0.25	
3237.50	0.25	
3240.00	0.25	
3242.50	0.25	
3245.00	0.25	
3247.50	0.25	
3250.00	0.25	
3252.50	0.25	
3255.00	0.25	
3257.50	0.25	
3260.00	0.25	
3262.50	0.25	
3265.00	0.25	
3267.50	0.26	
3270.00	0.26	
3272.50	0.26	
3275.00	0.26	
3277.50	0.26	
3280.00	0.26	
3282.50	0.26	
3285.00	0.26	
3287.50	0.26	
3290.00	0.26	
3292.50	0.26	
3295.00	0.26	
3297.50	0.26	
3300.00	0.26	
3302.50	0.26	
3305.00	0.26	
3307.50	0.26	
3310.00	0.26	
3312.50	0.26	
3315.00	0.26	
3317.50	0.26	
3320.00	0.26	
3322.50	0.26	
3325.00	0.26	
3327.50	0.26	
3330.00	0.26	
3332.50	0.27	
3335.00	0.27	
3337.50	0.27	
3340.00	0.27	
3342.50	0.27	
3345.00	0.27	
3347.50	0.27	
3350.00	0.27	
3352.50	0.27	
3355.00	0.27	
3357.50	0.27	
3360.00	0.27	
3362.50	0.27	
3365.00	0.27	
3367.50	0.27	
3370.00	0.27	
3372.50	0.27	
3375.00	0.27	
3377.50	0.27	
3380.00	0.27	
3382.50	0.27	
3385.00	0.27	
3387.50	0.27	
3390.00	0.27	
3392.50	0.27	
3395.00	0.28	
3397.50	0.28	
3400.00	0.28	
3402.50	0.28	
3405.00	0.28	
3407.50	0.28	
3410.00	0.28	
3412.50	0.28	
3415.00	0.28	
3417.50	0.28	
3420.00	0.28	
3422.50	0.28	
3425.00	0.28	
3427.50	0.28	
3430.00	0.28	
3432.50	0.28	
3435.00	0.28	
3437.50	0.28	
3440.00	0.28	
3442.50	0.28	
3445.00	0.28	
3447.50	0.28	
3450.00	0.28	
3452.50	0.28	
3455.00	0.28	
3457.50	0.28	
3460.00	0.29	
3462.50	0.29	
3465.00	0.29	
3467.50	0.29	
3470.00	0.29	
3472.50	0.29	
3475.00	0.29	
3477.50	0.29	
3480.00	0.29	
3482.50	0.29	
3485.00	0.29	
3487.50	0.29	
3490.00	0.29	
3492.50	0.29	
3495.00	0.29	
3497.50	0.29	
3500.00	0.29	
3502.50	0.29	
3505.00	0.29	
3507.50	0.29	
3510.00	0.29	
3512.50	0.29	
3515.00	0.29	
3517.50	0.29	
3520.00	0.29	
3522.50	0.29	
3525.00	0.30	
3527.50	0.30	
3530.00	0.30	
3532.50	0.30	
3535.00	0.30	
3537.50	0.30	
3540.00	0.30	
3542.50	0.30	
3545.00	0.30	
3547.50	0.30	
3550.00	0.30	
3552.50	0.30	
3555.00	0.30	
3557.50	0.30	
3560.00	0.30	
3562.50	0.30	
3565.00	0.30	
3567.50	0.30	
3570.00	0.30	
3572.50	0.30	
3575.00	0.30	
3577.50	0.30	
3580.00	0.30	
3582.50	0.30	
3585.00	0.30	
3587.50	0.30	
3590.00	0.31	
3592.50	0.31	
3595.00	0.31	
3597.50	0.31	
3600.00	0.31	
3602.50	0.31	
3605.00	0.31	
3607.50	0.31	
3610.00	0.31	
3612.50	0.31	
3615.00	0.31	
3617.50	0.31	
3620.00	0.31	
3622.50	0.31	
3625.00	0.31	
3627.50	0.31	
3630.00	0.31	
3632.50	0.31	
3635.00	0.31	
3637.50	0.31	
3640.00	0.31	
3642.50	0.31	
3645.00	0.31	
3647.50	0.31	
3650.00	0.31	
3652.50	0.31	
3655.00	0.31	
3657.50	0.32	
3660.00	0.32	
3662.50	0.32	
3665.00	0.32	
3667.50	0.32	
3670.00	0.32	
3672.50	0.32	
3675.00	0.32	
3677.50	0.32	
3680.00	0.32	
3682.50	0.32	
3685.00	0.32	
3687.50	0.32	
3690.00	0.32	
3692.50	0.32	
3695.00	0.32	
3697.50	0.32	
3700.00	0.32	
3702.50	0.32	
3705.00	0.32	
3707.50	0.32	
3710.00	0.32	
3712.50	0.32	
3715.00	0.32	
3717.50	0.32	
3720.00	0.32	
3722.50	0.32	
3725.00	0.33	
3727.50	0.33	
3730.00	0.33	
3732.50	0.33	
3735.00	0.33	
3737.50	0.33	
3740.00	0.33	
3742.50	0.33	
3745.00	0.33	
3747.50	0.33	
3750.00	0.33	
3752.50	0.33	
3755.00	0.33	
3757.50	0.33	
3760.00	0.33	
3762.50	0.33	
3765.00	0.33	
3767.50	0.33	
3770.00	0.33	
3772.50	0.33	
3775.00	0.33	
3777.50	0.33	
3780.00	0.33	
3782.50	0.33	
3785.00	0.33	
3787.50	0.33	
3790.00	0.33	
3792.50	0.34	
3795.00	0.34	
3797.50	0.34	
3800.00	0.34	
3802.50	0.34	
3805.00	0.34	
3807.50	0.34	
3810.00	0.34	
3812.50	0.34	
3815.00	0.34	
3817.50	0.34	
3820.00	0.34	
3822.50	0.34	
3825.00	0.34	
3827.50	0.34	
3830.00	0.34	
3832.50	0.34	
3835.00	0.34	
3837.50	0.34	
3840.00	0.34	
3842.50	0.34	
3845.00	0.34	
3847.50	0.34	
3850.00	0.34	
3852.50	0.34	
3855.00	0.34	
3857.50	0.34	
3860.00	0.35	
3862.50	0.35	
3865.00	0.35	
3867.50	0.35	
3870.00	0.35	
3872.50	0.35	
3875.00	0.35	
3877.50	0.35	
3880.00	0.35	
3882.50	0.35	
3885.00	0.35	
3887.50	0.35	
3890.00	0.35	
3892.50	0.35	
3895.00	0.35	
3897.50	0.35	
3900.00	0.35	
3902.50	0.35	
3905.00	0.35	
3907.50	0.35	
3910.00	0.35	
3912.50	0.35	
3915.00	0.35	
3917.50	0.35	
3920.00	0.35	
3922.50	0.35	
3925.00	0.35	
3927.50	0.35	
3930.00	0.36	
3932.50	0.36	
3935.00	0.36	
3937.50	0.36	
3940.00	0.36	
3942.50	0.36	
3945.00	0.36	
3947.50	0.36	
3950.00	0.36	
3952.50	0.36	
3955.00	0.36	
3957.50	0.36	
3960.00	0.36	
3962.50	0.36	
3965.00	0.36	
3967.50	0.36	
3970.00	0.36	
3972.50	0.36	
3975.00	0.36	
3977.50	0.36	
3980.00	0.36	
3982.50	0.36	
3985.00	0.36	
3987.50	0.36	
3990.00	0.36	
3992.50	0.36	
3995.00	0.36	
3997.50	0.36	
4000.00	0.37	
4002.50	0.37	
4005.00	0.37	
4007.50	0.37	
4010.00	0.37	
4012.50	0.37	
4015.00	0.37	
4017.50	0.37	
4020.00	0.37	
4022.50	0.37	
4025.00	0.37	
4027.50	0.37	
4030.00	0.37	
4032.50	0.37	
4035.00	0.37	
4037.50	0.37	
4040.00	0.37	
4042.50	0.37	
4045.00	0.37	
4047.50	0.37	
4050.00	0.37	
4052.50	0.37	
4055.00	0.37	
4057.50	0.37	
4060.00	0.37	
4062.50	0.37	
4065.00	0.37	
4067.50	0.37	
4070.00	0.38	
4072.50	0.38	
4075.00	0.38	
4077.50	0.38	
4080.00	0.38	
4082.50	0.38	
4085.00	0.38	
4087.50	0.38	
4090.00	0.38	
4092.50	0.38	
4095.00	0.38	
4097.50	0.38	
4100.00	0.38	
4102.50	0.38	
4105.00	0.38	
4107.50	0.38	
4110.00	0.38	
4112.50	0.38	
4115.00	0.38	
4117.50	0.38	
4120.00	0.38	
4122.50	0.38	
4125.00	0.38	
4127.50	0.38	
4130.00	0.38	
4132.50	0.38	
4135.00	0.38	
4137.50	0.38	
4140.00	0.38	
4142.50	0.39	
4145.00	0.39	
4147.50	0.39	
4150.00	0.39	
4152.50	0.39	
4155.00	0.39	
4157.50	0.39	
4160.00	0.39	
4162.50	0.39	
4165.00	0.39	
4167.50	0.39	
4170.00	0.39	
4172.50	0.39	
4175.00	0.39	
4177.50	0.39	
4180.00	0.39	
4182.50	0.39	
4185.00	0.39	
4187.50	0.39	
4190.00	0.39	
4192.50	0.39	
4195.00	0.39	
4197.50	0.39	
4200.00	0.39	
4202.50	0.39	
4205.00	0.39	
4207.50	0.39	
4210.00	0.39	
4212.50	0.39	
4215.00	0.40	
4217.50	0.40	
4220.00	0.40	
4222.50	0.40	
4225.00	0.40	
4227.50	0.40	
4230.00	0.40	
4232.50	0.40	
4235.00	0.40	
4237.50	0.40	
4240.00	0.40	
4242.50	0.40	
4245.00	0.40	
4247.50	0.40	
4250.00	0.40	
4252.50	0.40	
4255.00	0.40	
4257.50	0.40	
4260.00	0.40	
4262.50	0.40	
4265.00	0.40	
4267.50	0.40	
4270.00	0.40	
4272.50	0.40	
4275.00	0.40	
4277.50	0.40	
4280.00	0.40	
4282.50	0.40	
4285.00	0.40	
4287.50	0.41	
4290.00	0.41	
4292.50	0.41	
4295.00	0.41	
4297.50	0.41	
4300.00	0.41	
4302.50	0.41	
4305.00	0.41	
4307.50	0.41	
4310.00	0.41	
4312.50	0.41	
4315.00	0.41	
4317.50	0.41	
4320.00	0.41	
4322.50	0.41	
4325.00	0.41	
4327.50	0.41	
4330.00	0.41	
4332.50	0.41	
4335.00	0.41	
4337.50	0.41	
4340.00	0.41	
4342.50	0.41	
4345.00	0.41	
4347.50	0.41	
4350.00	0.41	
4352.50	0.41	
4355.00	0.41	
4357.50	0.41	
4360.00	0.42	
4362.50	0.42	
4365.00	0.42	
4367.50	0.42	
4370.00	0.42	
4372.50	0.42	
4375.00	0.42	
4377.50	0.42	
4380.00	0.42	
4382.50	0.42	
4385.00	0.42	
4387.50	0.42	
4390.00	0.42	
4392.50	0.42	
4395.00	0.42	
4397.50	0.42	
4400.00	0.42	
4402.50	0.42	
4405.00	0.42	
4407.50	0.42	
4410.00	0.42	
4412.50	0.42	
4415.00	0.42	
4417.50	0.42	
4420.00	0.42	
4422.50	0.42	
4425.00	0.42	
4427.50	0.42	
4430.00	0.42	
4432.50	0.43	
4435.00	0.43	
4437.50	0.43	
4440.00	0.43	
4442.50	0.43	
4445.00	0.43	
4447.50	0.43	
4450.00	0.43	
4452.50	0.43	
4455.00	0.43	
4457.50	0.43	
4460.00	0.43	
4462.50	0.43	
4465.00	0.43	
4467.50	0.43	
4470.00	0.43	
4472.50	0.43	
4475.00	0.43	
4477.50	0.43	
4480.00	0.43	
4482.50	0.43	
4485.00	0.43	
4487.50	0.43	
4490.00	0.43	
4492.50	0.43	
4495.00	0.43	
4497.50	0.43	
4500.00	0.43	
4502.50	0.43	
4505.00	0.43	
4507.50	0.44	
4510.00	0.44	
4512.50	0.44	
4515.00	0.44	
4517.50	0.44	
4520.00	0.44	
4522.50	0.44	
4525.00	0.44	
4527.50	0.44	
4530.00	0.44	
4532.50	0.44	
4535.00	0.44	
4537.50	0.44	
4540.00	0.44	
4542.50	0.44	
4545.00	0.44	
4547.50	0.44	
4550.00	0.44	
4552.50	0.44	
4555.00	0.44	
4557.50	0.44	
4560.00	0.44	
4562.50	0.44	
4565.00	0.44	
4567.50	0.44	
4570.00	0.44	
4572.50	0.44	
4575.00	0.44	
4577.50	0.44	
4580.00	0.44	
4582.50	0.45	
4585.00	0.45	
4587.50	0.45	
4590.00	0.45	
4592.50	0.45	
4595.00	0.45	
4597.50	0.45	
4600.00	0.45	
4602.50	0.45	
4605.00	0.45	
4607.50	0.45	
4610.00	0.45	
4612.50	0.45	
4615.00	0.45	
4617.50	0.45	
4620.00	0.45	
4622.50	0.45	
4625.00	0.45	
4627.50	0.45	
4630.00	0.45	
4632.50	0.45	
4635.00	0.45	
4637.50	0.45	
4640.00	0.45	
4642.50	0.45	
4645.00	0.45	
4647.50	0.45	
4650.00	0.45	
4652.50	0.45	
4655.00	0.45	
4657.50	0.45	
4660.00	0.46	
4662.50	0.46	
4665.00	0.46	
4667.50	0.46	
4670.00	0.46	
4672.50	0.46	
4675.00	0.46	
4677.50	0.46	
4680.00	0.46	
4682.50	0.46	
4685.00	0.46	
4687.50	0.46	
4690.00	0.46	
4692.50	0.46	
4695.00	0.46	
4697.50	0.46	
4700.00	0.46	
4702.50	0.46	
4705.00	0.46	
4707.50	0.46	
4710.00	0.46	
4712.50	0.46	
4715.00	0.46	
4717.50	0.46	
4720.00	0.46	
4722.50	0.46	
4725.00	0.46	
4727.50	0.46	
4730.00	0.46	
4732.50	0.46	
4735.00	0.47	
4737.50	0.47	
4740.00	0.47	
4742.50	0.47	
4745.00	0.47	
4747.50	0.47	
4750.00	0.47	
4752.50	0.47	
4755.00	0.47	
4757.50	0.47	
4760.00	0.47	
4762.50	0.47	
4765.00	0.47	
4767.50	0.47	
4770.00	0.47	
4772.50	0.47	
4775.00	0.47	
4777.50	0.47	
4780.00	0.47	
4782.50	0.47	
4785.00	0.47	
4787.50	0.47	
4790.00	0.47	
4792.50	0.47	
4795.00	0.47	
4797.50	0.47	
4800.00	0.47	
4802.50	0.47	
4805.00	0.47	
4807.50	0.47	
4810.00	0.47	
4812.50	0.48	
4815.00	0.48	
4817.50	0.48	
4820.00	0.48	
4822.50	0.48	
4825.00	0.48	
4827.50	0.48	
4830.00	0.48	
4832.50	0.48	
4835.00	0.48	
4837.50	0.48	
4840.00	0.48	
4842.50	0.48	
4845.00	0.48	
4847.50	0.48	
4850.00	0.48	
4852.50	0.48	
4855.00	0.48	
4857.50	0.48	
4860.00	0.48	
4862.50	0.48	
4865.00	0.48	
4867.50	0.48	
4870.00	0.48	
4872.50	0.48	
4875.00	0.48	
4877.50	0.48	
4880.00	0.48	
4882.50	0.48	
4885.00	0.48	
4887.50	0.48	
4890.00	0.49	
4892.50	0.49	
4895.00	0.49	
4897.50	0.49	
4900.00	0.49	
4902.50	0.49	
4905.00	0.49	
4907.50	0.49	
4910.00	0.49	
4912.50	0.49	
4915.00	0.49	
4917.50	0.49	
4920.00	0.49	
4922.50	0.49	
4925.00	0.49	
4927.50	0.49	
4930.00	0.49	
4932.50	0.49	
4935.00	0.49	
4937.50	0.49	
4940.00	0.49	
4942.50	0.49	
4945.00	0.49	
4947.50	0.49	
4950.00	0.49	
4952.50	0.49	
4955.00	0.49	
4957.50	0.49	
4960.00	0.49	
4962.50	0.49	
4965.00	0.49	
4967.50	0.50	
4970.00	0.50	
4972.50	0.50	
4975.00	0.50	
4977.50	0.50	
4980.00	0.50	
4982.50	0.50	
4985.00	0.50	
4987.50	0.50	
4990.00	0.50	
4992.50	0.50	
4995.00	0.50	
4997.50	0.50	
5000.00	0.50	
5002.50	0.50	
5005.00	0.50	
5007.50	0.50	
5010.00	0.50	
5012.50	0.50	
5015.00	0.50	
5017.50	0.50	
5020.00	0.50	
5022.50	0.50	
5025.00	0.50	
5027.50	0.50	
5030.00	0.50	
5032.50	0.50	
5035.00	0.50	
5037.50	0.50	
5040.00	0.50	
5042.50	0.50	
5045.00	0.50	
5047.50	0.51	
5050.00	0.51	
5052.50	0.51	
5055.00	0.51	
5057.50	0.51	
5060.00	0.51	
5062.50	0.51	
5065.00	0.51	
5067.50	0.51	
5070.00	0.51	
5072.50	0.51	
5075.00	0.51	
5077.50	0.51	
5080.00	0.51	
5082.50	0.51	
5085.00	0.51	
5087.50	0.51	
5090.00	0.51	
5092.50	0.51	
5095.00	0.51	
5097.50	0.51	
5100.00	0.51	
5102.50	0.51	
5105.00	0.51	
5107.50	0.51	
5110.00	0.51	
5112.50	0.51	
5115.00	0.51	
5117.50	0.51	
5120.00	0.51	
5122.50	0.51	
5125.00	0.51	
5127.50	0.52	
5130.00	0.52	
5132.50	0.52	
5135.00	0.52	
5137.50	0.52	
5140.00	0.52	
5142.50	0.52	
5145.00	0.52	
5147.50	0.52	
5150.00	0.52	
5152.50	0.52	
5155.00	0.52	
5157.50	0.52	
5160.00	0.52	
5162.50	0.52	
5165.00	0.52	
5167.50	0.52	
5170.00	0.52	
5172.50	0.52	
5175.00	0.52	
5177.50	0.52	
5180.00	0.52	
5182.50	0.52	
5185.00	0.52	
5187.50	0.52	
5190.00	0.52	
5192.50	0.52	
5195.00	0.52	
5197.50	0.52	
5200.00	0.52	
5202.50	0.52	
5205.00	0.52	
5207.50	0.53	
5210.00	0.53	
5212.50	0.53	
5215.00	0.53	
5217.50	0.53	
5220.00	0.53	
5222.50	0.53	
5225.00	0.53	
5227.50	0.53	
5230.00	0.53	
5232.50	0.53	
5235.00	0.53	
5237.50	0.53	
5240.00	0.53	
5242.50	0.53	
5245.00	0.53	
5247.50	0.53	
5250.00	0.53	
5252.50	0.53	
5255.00	0.53	
5257.50	0.53	
5260.00	0.53	
5262.50	0.53	
5265.00	0.53	
5267.50	0.53	
5270.00	0.53	
5272.50	0.53	
5275.00	0.53	
5277.50	0.53	
5280.00	0.53	
5282.50	0.53	
5285.00	0.53	
5287.50	0.54	
5290.00	0.54	
5292.50	0.54	
5295.00	0.54	
5297.50	0.54	
5300.00	0.54	
5302.50	0.54	
5305.00	0.54	
5307.50	0.54	
5310.00	0.54	
5312.50	0.54	
5315.00	0.54	
5317.50	0.54	
5320.00	0.54	
5322.50	0.54	
5325.00	0.54	
5327.50	0.54	
5330.00	0.54	
5332.50	0.54	
5335.00	0.54	
5337.50	0.54	
5340.00	0.54	
5342.50	0.54	
5345.00	0.54	
5347.50	0.54	
5350.00	0.54	
5352.50	0.54	
5355.00	0.54	
5357.50	0.54	
5360.00	0.54	
5362.50	0.54	
5365.00	0.54	
5367.50	0.54	
5370.00	0.55	
5372.50	0.55	
5375.00	0.55	
5377.50	0.55	
5380.00	0.55	
5382.50	0.55	
5385.00	0.55	
5387.50	0.55	
5390.00	0.55	
5392.50	0.55	
5395.00	0.55	
5397.50	0.55	
5400.00	0.55	
5402.50	0.55	
5405.00	0.55	
5407.50	0.55	
5410.00	0.55	
5412.50	0.55	
5415.00	0.55	
5417.50	0.55	
5420.00	0.55	
5422.50	0.55	
5425.00	0.55	
5427.50	0.55	
5430.00	0.55	
5432.50	0.55	
5435.00	0.55	
5437.50	0.55	
5440.00	0.55	
5442.50	0.55	
5445.00	0.55	
5447.50	0.55	
5450.00	0.55	
5452.50	0.56	
5455.00	0.56	
5457.50	0.56	
5460.00	0.56	
5462.50	0.56	
5465.00	0.56	
5467.50	0.56	
5470.00	0.56	
5472.50	0.56	
5475.00	0.56	
5477.50	0.56	
5480.00	0.56	
5482.50	0.56	
5485.00	0.56	
5487.50	0.56	
5490.00	0.56	
5492.50	0.56	
5495.00	0.56	
5497.50	0.56	
5500.00	0.56	
5502.50	0.56	
5505.00	0.56	
5507.50	0.56	
5510.00	0.56	
5512.50	0.56	
5515.00	0.56	
5517.50	0.56	
5520.00	0.56	
5522.50	0.56	
5525.00	0.56	
5527.50	0.56	
5530.00	0.56	
5532.50	0.56	
5535.00	0.57	
5537.50	0.57	
5540.00	0.57	
5542.50	0.57	
5545.00	0.57	
5547.50	0.57	
5550.00	0.57	
5552.50	0.57	
5555.00	0.57	
5557.50	0.57	
5560.00	0.57	
5562.50	0.57	
5565.00	0.57	
5567.50	0.57	
5570.00	0.57	
5572.50	0.57	
5575.00	0.57	
5577.50	0.57	
5580.00	0.57	
5582.50	0.57	
5585.00	0.57	
5587.50	0.57	
5590.00	0.57	
5592.50	0.57	
5595.00	0.57	
5597.50	0.57	
5600.00	0.57	
5602.50	0.57	
5605.00	0.57	
5607.50	0.57	
5610.00	0.57	
5612.50	0.57	
5615.00	0.57	
5617.50	0.57	
5620.00	0.58	
5622.50	0.58	
5625.00	0.58	
5627.50	0.58	
5630.00	0.58	
5632.50	0.58	
5635.00	0.58	
5637.50	0.58	
5640.00	0.58	
5642.50	0.58	
5645.00	0.58	
5647.50	0.58	
5650.00	0.58	
5652.50	0.58	
5655.00	0.58	
5657.50	0.58	
5660.00	0.58	
5662.50	0.58	
5665.00	0.58	
5667.50	0.58	
5670.00	0.58	
5672.50	0.58	
5675.00	0.58	
5677.50	0.58	
5680.00	0.58	
5682.50	0.58	
5685.00	0.58	
5687.50	0.58	
5690.00	0.58	
5692.50	0.58	
5695.00	0.58	
5697.50	0.58	
5700.00	0.58	
5702.50	0.59	
5705.00	0.59	
5707.50	0.59	
5710.00	0.59	
5712.50	0.59	
5715.00	0.59	
5717.50	0.59	
5720.00	0.59	
5722.50	0.59	
5725.00	0.59	
5727.50	0.59	
5730.00	0.59	
5732.50	0.59	
5735.00	0.59	
5737.50	0.59	
5740.00	0.59	
5742.50	0.59	
5745.00	0.59	
5747.50	0.59	
5750.00	0.59	
5752.50	0.59	
5755.00	0.59	
5757.50	0.59	
5760.00	0.59	
5762.50	0.59	
5765.00	0.59	
5767.50	0.59	
5770.00	0.59	
5772.50	0.59	
5775.00	0.59	
5777.50	0.59	
5780.00	0.59	
5782.50	0.59	
5785.00	0.59	
5787.50	0.60	
5790.00	0.60	
5792.50	0.60	
5795.00	0.60	
5797.50	0.60	
5800.00	0.60	
5802.50	0.60	
5805.00	0.60	
5807.50	0.60	
5810.00	0.60	
5812.50	0.60	
5815.00	0.60	
5817.50	0.60	
5820.00	0.60	
5822.50	0.60	
5825.00	0.60	
5827.50	0.60	
5830.00	0.60	
5832.50	0.60	
5835.00	0.60	
5837.50	0.60	
5840.00	0.60	
5842.50	0.60	
5845.00	0.60	
5847.50	0.60	
5850.00	0.60	
5852.50	0.60	
5855.00	0.60	
5857.50	0.60	
5860.00	0.60	
5862.50	0.60	
5865.00	0.60	
5867.50	0.60	
5870.00	0.60	
5872.50	0.61	
5875.00	0.61	
5877.50	0.61	
5880.00	0.61	
5882.50	0.61	
5885.00	0.61	
5887.50	0.61	
5890.00	0.61	
5892.50	0.61	
5895.00	0.61	
5897.50	0.61	
5900.00	0.61	
5902.50	0.61	
5905.00	0.61	
5907.50	0.61	
5910.00	0.61	
5912.50	0.61	
5915.00	0.61	
5917.50	0.61	
5920.00	0.61	
5922.50	0.61	
5925.00	0.61	
5927.50	0.61	
5930.00	0.61	
5932.50	0.61	
5935.00	0.61	
5937.50	0.61	
5940.00	0.61	
5942.50	0.61	
5945.00	0.61	
5947.50	0.61	
5950.00	0.61	
5952.50	0.61	
5955.00	0.61	
5957.50	0.61	
5960.00	0.62	
5962.50	0.62	
5965.00	0.62	
5967.50	0.62	
5970.00	0.62	
5972.50	0.62	
5975.00	0.62	
5977.50	0.62	
5980.00	0.62	
5982.50	0.62	
5985.00	0.62	
5987.50	0.62	
5990.00	0.62	
5992.50	0.62	
5995.00	0.62	
5997.50	0.62	
6000.00	0.62	
