 Frequency [Hz] - Resonance Curve	Voltage [V] - Resonance Curve	
1001.50	0.32	
1003.00	0.32	
1004.50	0.32	
1006.00	0.32	
1007.50	0.32	
1009.00	0.32	
1010.50	0.32	
1012.00	0.32	
1013.50	0.32	
1015.00	0.32	
1016.50	0.32	
1018.00	0.32	
1019.50	0.32	
1021.00	0.33	
1022.50	0.33	
1024.00	0.33	
1025.50	0.33	
1027.00	0.33	
1028.50	0.33	
1030.00	0.33	
1031.50	0.33	
1033.00	0.33	
1034.50	0.33	
1036.00	0.33	
1037.50	0.33	
1039.00	0.33	
1040.50	0.33	
1042.00	0.33	
1043.50	0.33	
1045.00	0.33	
1046.50	0.33	
1048.00	0.33	
1049.50	0.33	
1051.00	0.34	
1052.50	0.34	
1054.00	0.34	
1055.50	0.34	
1057.00	0.34	
1058.50	0.34	
1060.00	0.34	
1061.50	0.34	
1063.00	0.34	
1064.50	0.34	
1066.00	0.34	
1067.50	0.34	
1069.00	0.34	
1070.50	0.34	
1072.00	0.34	
1073.50	0.34	
1075.00	0.34	
1076.50	0.34	
1078.00	0.34	
1079.50	0.34	
1081.00	0.34	
1082.50	0.35	
1084.00	0.35	
1085.50	0.35	
1087.00	0.35	
1088.50	0.35	
1090.00	0.35	
1091.50	0.35	
1093.00	0.35	
1094.50	0.35	
1096.00	0.35	
1097.50	0.35	
1099.00	0.35	
1100.50	0.35	
1102.00	0.35	
1103.50	0.35	
1105.00	0.35	
1106.50	0.35	
1108.00	0.35	
1109.50	0.35	
1111.00	0.35	
1112.50	0.35	
1114.00	0.36	
1115.50	0.36	
1117.00	0.36	
1118.50	0.36	
1120.00	0.36	
1121.50	0.36	
1123.00	0.36	
1124.50	0.36	
1126.00	0.36	
1127.50	0.36	
1129.00	0.36	
1130.50	0.36	
1132.00	0.36	
1133.50	0.36	
1135.00	0.36	
1136.50	0.36	
1138.00	0.36	
1139.50	0.36	
1141.00	0.36	
1142.50	0.36	
1144.00	0.36	
1145.50	0.37	
1147.00	0.37	
1148.50	0.37	
1150.00	0.37	
1151.50	0.37	
1153.00	0.37	
1154.50	0.37	
1156.00	0.37	
1157.50	0.37	
1159.00	0.37	
1160.50	0.37	
1162.00	0.37	
1163.50	0.37	
1165.00	0.37	
1166.50	0.37	
1168.00	0.37	
1169.50	0.37	
1171.00	0.37	
1172.50	0.37	
1174.00	0.37	
1175.50	0.37	
1177.00	0.37	
1178.50	0.38	
1180.00	0.38	
1181.50	0.38	
1183.00	0.38	
1184.50	0.38	
1186.00	0.38	
1187.50	0.38	
1189.00	0.38	
1190.50	0.38	
1192.00	0.38	
1193.50	0.38	
1195.00	0.38	
1196.50	0.38	
1198.00	0.38	
1199.50	0.38	
1201.00	0.38	
1202.50	0.38	
1204.00	0.38	
1205.50	0.38	
1207.00	0.38	
1208.50	0.38	
1210.00	0.38	
1211.50	0.39	
1213.00	0.39	
1214.50	0.39	
1216.00	0.39	
1217.50	0.39	
1219.00	0.39	
1220.50	0.39	
1222.00	0.39	
1223.50	0.39	
1225.00	0.39	
1226.50	0.39	
1228.00	0.39	
1229.50	0.39	
1231.00	0.39	
1232.50	0.39	
1234.00	0.39	
1235.50	0.39	
1237.00	0.39	
1238.50	0.39	
1240.00	0.39	
1241.50	0.39	
1243.00	0.39	
1244.50	0.39	
1246.00	0.40	
1247.50	0.40	
1249.00	0.40	
1250.50	0.40	
1252.00	0.40	
1253.50	0.40	
1255.00	0.40	
1256.50	0.40	
1258.00	0.40	
1259.50	0.40	
1261.00	0.40	
1262.50	0.40	
1264.00	0.40	
1265.50	0.40	
1267.00	0.40	
1268.50	0.40	
1270.00	0.40	
1271.50	0.40	
1273.00	0.40	
1274.50	0.40	
1276.00	0.40	
1277.50	0.40	
1279.00	0.40	
1280.50	0.40	
1282.00	0.41	
1283.50	0.41	
1285.00	0.41	
1286.50	0.41	
1288.00	0.41	
1289.50	0.41	
1291.00	0.41	
1292.50	0.41	
1294.00	0.41	
1295.50	0.41	
1297.00	0.41	
1298.50	0.41	
1300.00	0.41	
1301.50	0.41	
1303.00	0.41	
1304.50	0.41	
1306.00	0.41	
1307.50	0.41	
1309.00	0.41	
1310.50	0.41	
1312.00	0.41	
1313.50	0.41	
1315.00	0.41	
1316.50	0.41	
1318.00	0.42	
1319.50	0.42	
1321.00	0.42	
1322.50	0.42	
1324.00	0.42	
1325.50	0.42	
1327.00	0.42	
1328.50	0.42	
1330.00	0.42	
1331.50	0.42	
1333.00	0.42	
1334.50	0.42	
1336.00	0.42	
1337.50	0.42	
1339.00	0.42	
1340.50	0.42	
1342.00	0.42	
1343.50	0.42	
1345.00	0.42	
1346.50	0.42	
1348.00	0.42	
1349.50	0.42	
1351.00	0.42	
1352.50	0.42	
1354.00	0.42	
1355.50	0.42	
1357.00	0.43	
1358.50	0.43	
1360.00	0.43	
1361.50	0.43	
1363.00	0.43	
1364.50	0.43	
1366.00	0.43	
1367.50	0.43	
1369.00	0.43	
1370.50	0.43	
1372.00	0.43	
1373.50	0.43	
1375.00	0.43	
1376.50	0.43	
1378.00	0.43	
1379.50	0.43	
1381.00	0.43	
1382.50	0.43	
1384.00	0.43	
1385.50	0.43	
1387.00	0.43	
1388.50	0.43	
1390.00	0.43	
1391.50	0.43	
1393.00	0.43	
1394.50	0.43	
1396.00	0.43	
1397.50	0.44	
1399.00	0.44	
1400.50	0.44	
1402.00	0.44	
1403.50	0.44	
1405.00	0.44	
1406.50	0.44	
1408.00	0.44	
1409.50	0.44	
1411.00	0.44	
1412.50	0.44	
1414.00	0.44	
1415.50	0.44	
1417.00	0.44	
1418.50	0.44	
1420.00	0.44	
1421.50	0.44	
1423.00	0.44	
1424.50	0.44	
1426.00	0.44	
1427.50	0.44	
1429.00	0.44	
1430.50	0.44	
1432.00	0.44	
1433.50	0.44	
1435.00	0.44	
1436.50	0.44	
1438.00	0.44	
1439.50	0.44	
1441.00	0.45	
1442.50	0.45	
1444.00	0.45	
1445.50	0.45	
1447.00	0.45	
1448.50	0.45	
1450.00	0.45	
1451.50	0.45	
1453.00	0.45	
1454.50	0.45	
1456.00	0.45	
1457.50	0.45	
1459.00	0.45	
1460.50	0.45	
1462.00	0.45	
1463.50	0.45	
1465.00	0.45	
1466.50	0.45	
1468.00	0.45	
1469.50	0.45	
1471.00	0.45	
1472.50	0.45	
1474.00	0.45	
1475.50	0.45	
1477.00	0.45	
1478.50	0.45	
1480.00	0.45	
1481.50	0.45	
1483.00	0.45	
1484.50	0.45	
1486.00	0.45	
1487.50	0.46	
1489.00	0.46	
1490.50	0.46	
1492.00	0.46	
1493.50	0.46	
1495.00	0.46	
1496.50	0.46	
1498.00	0.46	
1499.50	0.46	
1501.00	0.46	
1502.50	0.46	
1504.00	0.46	
1505.50	0.46	
1507.00	0.46	
1508.50	0.46	
1510.00	0.46	
1511.50	0.46	
1513.00	0.46	
1514.50	0.46	
1516.00	0.46	
1517.50	0.46	
1519.00	0.46	
1520.50	0.46	
1522.00	0.46	
1523.50	0.46	
1525.00	0.46	
1526.50	0.46	
1528.00	0.46	
1529.50	0.46	
1531.00	0.46	
1532.50	0.46	
1534.00	0.46	
1535.50	0.46	
1537.00	0.46	
1538.50	0.47	
1540.00	0.47	
1541.50	0.47	
1543.00	0.47	
1544.50	0.47	
1546.00	0.47	
1547.50	0.47	
1549.00	0.47	
1550.50	0.47	
1552.00	0.47	
1553.50	0.47	
1555.00	0.47	
1556.50	0.47	
1558.00	0.47	
1559.50	0.47	
1561.00	0.47	
1562.50	0.47	
1564.00	0.47	
1565.50	0.47	
1567.00	0.47	
1568.50	0.47	
1570.00	0.47	
1571.50	0.47	
1573.00	0.47	
1574.50	0.47	
1576.00	0.47	
1577.50	0.47	
1579.00	0.47	
1580.50	0.47	
1582.00	0.47	
1583.50	0.47	
1585.00	0.47	
1586.50	0.47	
1588.00	0.47	
1589.50	0.47	
1591.00	0.47	
1592.50	0.47	
1594.00	0.47	
1595.50	0.47	
1597.00	0.47	
1598.50	0.48	
1600.00	0.48	
1601.50	0.48	
1603.00	0.48	
1604.50	0.48	
1606.00	0.48	
1607.50	0.48	
1609.00	0.48	
1610.50	0.48	
1612.00	0.48	
1613.50	0.48	
1615.00	0.48	
1616.50	0.48	
1618.00	0.48	
1619.50	0.48	
1621.00	0.48	
1622.50	0.48	
1624.00	0.48	
1625.50	0.48	
1627.00	0.48	
1628.50	0.48	
1630.00	0.48	
1631.50	0.48	
1633.00	0.48	
1634.50	0.48	
1636.00	0.48	
1637.50	0.48	
1639.00	0.48	
1640.50	0.48	
1642.00	0.48	
1643.50	0.48	
1645.00	0.48	
1646.50	0.48	
1648.00	0.48	
1649.50	0.48	
1651.00	0.48	
1652.50	0.48	
1654.00	0.48	
1655.50	0.48	
1657.00	0.48	
1658.50	0.48	
1660.00	0.48	
1661.50	0.48	
1663.00	0.48	
1664.50	0.48	
1666.00	0.48	
1667.50	0.48	
1669.00	0.48	
1670.50	0.48	
1672.00	0.48	
1673.50	0.49	
1675.00	0.49	
1676.50	0.49	
1678.00	0.49	
1679.50	0.49	
1681.00	0.49	
1682.50	0.49	
1684.00	0.49	
1685.50	0.49	
1687.00	0.49	
1688.50	0.49	
1690.00	0.49	
1691.50	0.49	
1693.00	0.49	
1694.50	0.49	
1696.00	0.49	
1697.50	0.49	
1699.00	0.49	
1700.50	0.49	
1702.00	0.49	
1703.50	0.49	
1705.00	0.49	
1706.50	0.49	
1708.00	0.49	
1709.50	0.49	
1711.00	0.49	
1712.50	0.49	
1714.00	0.49	
1715.50	0.49	
1717.00	0.49	
1718.50	0.49	
1720.00	0.49	
1721.50	0.49	
1723.00	0.49	
1724.50	0.49	
1726.00	0.49	
1727.50	0.49	
1729.00	0.49	
1730.50	0.49	
1732.00	0.49	
1733.50	0.49	
1735.00	0.49	
1736.50	0.49	
1738.00	0.49	
1739.50	0.49	
1741.00	0.49	
1742.50	0.49	
1744.00	0.49	
1745.50	0.49	
1747.00	0.49	
1748.50	0.49	
1750.00	0.49	
1751.50	0.49	
1753.00	0.49	
1754.50	0.49	
1756.00	0.49	
1757.50	0.49	
1759.00	0.49	
1760.50	0.49	
1762.00	0.49	
1763.50	0.49	
1765.00	0.49	
1766.50	0.49	
1768.00	0.49	
1769.50	0.49	
1771.00	0.49	
1772.50	0.49	
1774.00	0.49	
1775.50	0.49	
1777.00	0.49	
1778.50	0.49	
1780.00	0.49	
1781.50	0.50	
1783.00	0.50	
1784.50	0.50	
1786.00	0.50	
1787.50	0.50	
1789.00	0.50	
1790.50	0.50	
1792.00	0.50	
1793.50	0.50	
1795.00	0.50	
1796.50	0.50	
1798.00	0.50	
1799.50	0.50	
1801.00	0.50	
1802.50	0.50	
1804.00	0.50	
1805.50	0.50	
1807.00	0.50	
1808.50	0.50	
1810.00	0.50	
1811.50	0.50	
1813.00	0.50	
1814.50	0.50	
1816.00	0.50	
1817.50	0.50	
1819.00	0.50	
1820.50	0.50	
1822.00	0.50	
1823.50	0.50	
1825.00	0.50	
1826.50	0.50	
1828.00	0.50	
1829.50	0.50	
1831.00	0.50	
1832.50	0.50	
1834.00	0.50	
1835.50	0.50	
1837.00	0.50	
1838.50	0.50	
1840.00	0.50	
1841.50	0.50	
1843.00	0.50	
1844.50	0.50	
1846.00	0.50	
1847.50	0.50	
1849.00	0.50	
1850.50	0.50	
1852.00	0.50	
1853.50	0.50	
1855.00	0.50	
1856.50	0.50	
1858.00	0.50	
1859.50	0.50	
1861.00	0.50	
1862.50	0.50	
1864.00	0.50	
1865.50	0.50	
1867.00	0.50	
1868.50	0.50	
1870.00	0.50	
1871.50	0.50	
1873.00	0.50	
1874.50	0.50	
1876.00	0.50	
1877.50	0.50	
1879.00	0.50	
1880.50	0.50	
1882.00	0.50	
1883.50	0.50	
1885.00	0.50	
1886.50	0.50	
1888.00	0.50	
1889.50	0.50	
1891.00	0.50	
1892.50	0.50	
1894.00	0.50	
1895.50	0.50	
1897.00	0.50	
1898.50	0.50	
1900.00	0.50	
1901.50	0.50	
1903.00	0.50	
1904.50	0.50	
1906.00	0.50	
1907.50	0.50	
1909.00	0.50	
1910.50	0.50	
1912.00	0.50	
1913.50	0.50	
1915.00	0.50	
1916.50	0.50	
1918.00	0.50	
1919.50	0.50	
1921.00	0.50	
1922.50	0.50	
1924.00	0.50	
1925.50	0.50	
1927.00	0.50	
1928.50	0.50	
1930.00	0.50	
1931.50	0.50	
1933.00	0.50	
1934.50	0.50	
1936.00	0.50	
1937.50	0.50	
1939.00	0.50	
1940.50	0.50	
1942.00	0.50	
1943.50	0.50	
1945.00	0.50	
1946.50	0.50	
1948.00	0.50	
1949.50	0.50	
1951.00	0.50	
1952.50	0.50	
1954.00	0.50	
1955.50	0.50	
1957.00	0.50	
1958.50	0.50	
1960.00	0.50	
1961.50	0.50	
1963.00	0.50	
1964.50	0.50	
1966.00	0.50	
1967.50	0.50	
1969.00	0.50	
1970.50	0.50	
1972.00	0.50	
1973.50	0.50	
1975.00	0.50	
1976.50	0.50	
1978.00	0.50	
1979.50	0.50	
1981.00	0.50	
1982.50	0.50	
1984.00	0.50	
1985.50	0.50	
1987.00	0.50	
1988.50	0.50	
1990.00	0.50	
1991.50	0.50	
1993.00	0.50	
1994.50	0.50	
1996.00	0.50	
1997.50	0.50	
1999.00	0.50	
2000.50	0.50	
2002.00	0.50	
2003.50	0.50	
2005.00	0.50	
2006.50	0.50	
2008.00	0.50	
2009.50	0.50	
2011.00	0.50	
2012.50	0.50	
2014.00	0.50	
2015.50	0.50	
2017.00	0.50	
2018.50	0.50	
2020.00	0.50	
2021.50	0.50	
2023.00	0.50	
2024.50	0.50	
2026.00	0.50	
2027.50	0.50	
2029.00	0.50	
2030.50	0.50	
2032.00	0.50	
2033.50	0.50	
2035.00	0.50	
2036.50	0.50	
2038.00	0.50	
2039.50	0.50	
2041.00	0.50	
2042.50	0.50	
2044.00	0.50	
2045.50	0.50	
2047.00	0.50	
2048.50	0.50	
2050.00	0.50	
2051.50	0.50	
2053.00	0.50	
2054.50	0.50	
2056.00	0.50	
2057.50	0.50	
2059.00	0.50	
2060.50	0.50	
2062.00	0.50	
2063.50	0.50	
2065.00	0.50	
2066.50	0.50	
2068.00	0.50	
2069.50	0.50	
2071.00	0.50	
2072.50	0.50	
2074.00	0.50	
2075.50	0.50	
2077.00	0.50	
2078.50	0.50	
2080.00	0.50	
2081.50	0.50	
2083.00	0.50	
2084.50	0.50	
2086.00	0.50	
2087.50	0.50	
2089.00	0.50	
2090.50	0.50	
2092.00	0.50	
2093.50	0.50	
2095.00	0.50	
2096.50	0.50	
2098.00	0.50	
2099.50	0.50	
2101.00	0.50	
2102.50	0.50	
2104.00	0.50	
2105.50	0.49	
2107.00	0.49	
2108.50	0.49	
2110.00	0.49	
2111.50	0.49	
2113.00	0.49	
2114.50	0.49	
2116.00	0.49	
2117.50	0.49	
2119.00	0.49	
2120.50	0.49	
2122.00	0.49	
2123.50	0.49	
2125.00	0.49	
2126.50	0.49	
2128.00	0.49	
2129.50	0.49	
2131.00	0.49	
2132.50	0.49	
2134.00	0.49	
2135.50	0.49	
2137.00	0.49	
2138.50	0.49	
2140.00	0.49	
2141.50	0.49	
2143.00	0.49	
2144.50	0.49	
2146.00	0.49	
2147.50	0.49	
2149.00	0.49	
2150.50	0.49	
2152.00	0.49	
2153.50	0.49	
2155.00	0.49	
2156.50	0.49	
2158.00	0.49	
2159.50	0.49	
2161.00	0.49	
2162.50	0.49	
2164.00	0.49	
2165.50	0.49	
2167.00	0.49	
2168.50	0.49	
2170.00	0.49	
2171.50	0.49	
2173.00	0.49	
2174.50	0.49	
2176.00	0.49	
2177.50	0.49	
2179.00	0.49	
2180.50	0.49	
2182.00	0.49	
2183.50	0.49	
2185.00	0.49	
2186.50	0.49	
2188.00	0.49	
2189.50	0.49	
2191.00	0.49	
2192.50	0.49	
2194.00	0.49	
2195.50	0.49	
2197.00	0.49	
2198.50	0.49	
2200.00	0.49	
2201.50	0.49	
2203.00	0.49	
2204.50	0.49	
2206.00	0.49	
2207.50	0.49	
2209.00	0.49	
2210.50	0.49	
2212.00	0.49	
2213.50	0.49	
2215.00	0.49	
2216.50	0.49	
2218.00	0.49	
2219.50	0.49	
2221.00	0.49	
2222.50	0.49	
2224.00	0.49	
2225.50	0.49	
2227.00	0.49	
2228.50	0.49	
2230.00	0.49	
2231.50	0.49	
2233.00	0.49	
2234.50	0.49	
2236.00	0.49	
2237.50	0.49	
2239.00	0.49	
2240.50	0.49	
2242.00	0.49	
2243.50	0.48	
2245.00	0.48	
2246.50	0.48	
2248.00	0.48	
2249.50	0.48	
2251.00	0.48	
2252.50	0.48	
2254.00	0.48	
2255.50	0.48	
2257.00	0.48	
2258.50	0.48	
2260.00	0.48	
2261.50	0.48	
2263.00	0.48	
2264.50	0.48	
2266.00	0.48	
2267.50	0.48	
2269.00	0.48	
2270.50	0.48	
2272.00	0.48	
2273.50	0.48	
2275.00	0.48	
2276.50	0.48	
2278.00	0.48	
2279.50	0.48	
2281.00	0.48	
2282.50	0.48	
2284.00	0.48	
2285.50	0.48	
2287.00	0.48	
2288.50	0.48	
2290.00	0.48	
2291.50	0.48	
2293.00	0.48	
2294.50	0.48	
2296.00	0.48	
2297.50	0.48	
2299.00	0.48	
2300.50	0.48	
2302.00	0.48	
2303.50	0.48	
2305.00	0.48	
2306.50	0.48	
2308.00	0.48	
2309.50	0.48	
2311.00	0.48	
2312.50	0.48	
2314.00	0.48	
2315.50	0.48	
2317.00	0.48	
2318.50	0.48	
2320.00	0.48	
2321.50	0.48	
2323.00	0.48	
2324.50	0.48	
2326.00	0.48	
2327.50	0.48	
2329.00	0.48	
2330.50	0.48	
2332.00	0.48	
2333.50	0.48	
2335.00	0.48	
2336.50	0.48	
2338.00	0.48	
2339.50	0.48	
2341.00	0.48	
2342.50	0.48	
2344.00	0.48	
2345.50	0.48	
2347.00	0.47	
2348.50	0.47	
2350.00	0.47	
2351.50	0.47	
2353.00	0.47	
2354.50	0.47	
2356.00	0.47	
2357.50	0.47	
2359.00	0.47	
2360.50	0.47	
2362.00	0.47	
2363.50	0.47	
2365.00	0.47	
2366.50	0.47	
2368.00	0.47	
2369.50	0.47	
2371.00	0.47	
2372.50	0.47	
2374.00	0.47	
2375.50	0.47	
2377.00	0.47	
2378.50	0.47	
2380.00	0.47	
2381.50	0.47	
2383.00	0.47	
2384.50	0.47	
2386.00	0.47	
2387.50	0.47	
2389.00	0.47	
2390.50	0.47	
2392.00	0.47	
2393.50	0.47	
2395.00	0.47	
2396.50	0.47	
2398.00	0.47	
2399.50	0.47	
2401.00	0.47	
2402.50	0.47	
2404.00	0.47	
2405.50	0.47	
2407.00	0.47	
2408.50	0.47	
2410.00	0.47	
2411.50	0.47	
2413.00	0.47	
2414.50	0.47	
2416.00	0.47	
2417.50	0.47	
2419.00	0.47	
2420.50	0.47	
2422.00	0.47	
2423.50	0.47	
2425.00	0.47	
2426.50	0.47	
2428.00	0.47	
2429.50	0.47	
2431.00	0.47	
2432.50	0.47	
2434.00	0.47	
2435.50	0.47	
2437.00	0.47	
2438.50	0.46	
2440.00	0.46	
2441.50	0.46	
2443.00	0.46	
2444.50	0.46	
2446.00	0.46	
2447.50	0.46	
2449.00	0.46	
2450.50	0.46	
2452.00	0.46	
2453.50	0.46	
2455.00	0.46	
2456.50	0.46	
2458.00	0.46	
2459.50	0.46	
2461.00	0.46	
2462.50	0.46	
2464.00	0.46	
2465.50	0.46	
2467.00	0.46	
2468.50	0.46	
2470.00	0.46	
2471.50	0.46	
2473.00	0.46	
2474.50	0.46	
2476.00	0.46	
2477.50	0.46	
2479.00	0.46	
2480.50	0.46	
2482.00	0.46	
2483.50	0.46	
2485.00	0.46	
2486.50	0.46	
2488.00	0.46	
2489.50	0.46	
2491.00	0.46	
2492.50	0.46	
2494.00	0.46	
2495.50	0.46	
2497.00	0.46	
2498.50	0.46	
2500.00	0.46	
2501.50	0.46	
2503.00	0.46	
2504.50	0.46	
2506.00	0.46	
2507.50	0.46	
2509.00	0.46	
2510.50	0.46	
2512.00	0.46	
2513.50	0.46	
2515.00	0.46	
2516.50	0.46	
2518.00	0.46	
2519.50	0.46	
2521.00	0.46	
2522.50	0.45	
2524.00	0.45	
2525.50	0.45	
2527.00	0.45	
2528.50	0.45	
2530.00	0.45	
2531.50	0.45	
2533.00	0.45	
2534.50	0.45	
2536.00	0.45	
2537.50	0.45	
2539.00	0.45	
2540.50	0.45	
2542.00	0.45	
2543.50	0.45	
2545.00	0.45	
2546.50	0.45	
2548.00	0.45	
2549.50	0.45	
2551.00	0.45	
2552.50	0.45	
2554.00	0.45	
2555.50	0.45	
2557.00	0.45	
2558.50	0.45	
2560.00	0.45	
2561.50	0.45	
2563.00	0.45	
2564.50	0.45	
2566.00	0.45	
2567.50	0.45	
2569.00	0.45	
2570.50	0.45	
2572.00	0.45	
2573.50	0.45	
2575.00	0.45	
2576.50	0.45	
2578.00	0.45	
2579.50	0.45	
2581.00	0.45	
2582.50	0.45	
2584.00	0.45	
2585.50	0.45	
2587.00	0.45	
2588.50	0.45	
2590.00	0.45	
2591.50	0.45	
2593.00	0.45	
2594.50	0.45	
2596.00	0.45	
2597.50	0.45	
2599.00	0.45	
2600.50	0.45	
2602.00	0.45	
2603.50	0.45	
2605.00	0.44	
2606.50	0.44	
2608.00	0.44	
2609.50	0.44	
2611.00	0.44	
2612.50	0.44	
2614.00	0.44	
2615.50	0.44	
2617.00	0.44	
2618.50	0.44	
2620.00	0.44	
2621.50	0.44	
2623.00	0.44	
2624.50	0.44	
2626.00	0.44	
2627.50	0.44	
2629.00	0.44	
2630.50	0.44	
2632.00	0.44	
2633.50	0.44	
2635.00	0.44	
2636.50	0.44	
2638.00	0.44	
2639.50	0.44	
2641.00	0.44	
2642.50	0.44	
2644.00	0.44	
2645.50	0.44	
2647.00	0.44	
2648.50	0.44	
2650.00	0.44	
2651.50	0.44	
2653.00	0.44	
2654.50	0.44	
2656.00	0.44	
2657.50	0.44	
2659.00	0.44	
2660.50	0.44	
2662.00	0.44	
2663.50	0.44	
2665.00	0.44	
2666.50	0.44	
2668.00	0.44	
2669.50	0.44	
2671.00	0.44	
2672.50	0.44	
2674.00	0.44	
2675.50	0.44	
2677.00	0.44	
2678.50	0.44	
2680.00	0.44	
2681.50	0.44	
2683.00	0.44	
2684.50	0.44	
2686.00	0.43	
2687.50	0.43	
2689.00	0.43	
2690.50	0.43	
2692.00	0.43	
2693.50	0.43	
2695.00	0.43	
2696.50	0.43	
2698.00	0.43	
2699.50	0.43	
2701.00	0.43	
2702.50	0.43	
2704.00	0.43	
2705.50	0.43	
2707.00	0.43	
2708.50	0.43	
2710.00	0.43	
2711.50	0.43	
2713.00	0.43	
2714.50	0.43	
2716.00	0.43	
2717.50	0.43	
2719.00	0.43	
2720.50	0.43	
2722.00	0.43	
2723.50	0.43	
2725.00	0.43	
2726.50	0.43	
2728.00	0.43	
2729.50	0.43	
2731.00	0.43	
2732.50	0.43	
2734.00	0.43	
2735.50	0.43	
2737.00	0.43	
2738.50	0.43	
2740.00	0.43	
2741.50	0.43	
2743.00	0.43	
2744.50	0.43	
2746.00	0.43	
2747.50	0.43	
2749.00	0.43	
2750.50	0.43	
2752.00	0.43	
2753.50	0.43	
2755.00	0.43	
2756.50	0.43	
2758.00	0.43	
2759.50	0.43	
2761.00	0.43	
2762.50	0.43	
2764.00	0.43	
2765.50	0.42	
2767.00	0.42	
2768.50	0.42	
2770.00	0.42	
2771.50	0.42	
2773.00	0.42	
2774.50	0.42	
2776.00	0.42	
2777.50	0.42	
2779.00	0.42	
2780.50	0.42	
2782.00	0.42	
2783.50	0.42	
2785.00	0.42	
2786.50	0.42	
2788.00	0.42	
2789.50	0.42	
2791.00	0.42	
2792.50	0.42	
2794.00	0.42	
2795.50	0.42	
2797.00	0.42	
2798.50	0.42	
2800.00	0.42	
2801.50	0.42	
2803.00	0.42	
2804.50	0.42	
2806.00	0.42	
2807.50	0.42	
2809.00	0.42	
2810.50	0.42	
2812.00	0.42	
2813.50	0.42	
2815.00	0.42	
2816.50	0.42	
2818.00	0.42	
2819.50	0.42	
2821.00	0.42	
2822.50	0.42	
2824.00	0.42	
2825.50	0.42	
2827.00	0.42	
2828.50	0.42	
2830.00	0.42	
2831.50	0.42	
2833.00	0.42	
2834.50	0.42	
2836.00	0.42	
2837.50	0.42	
2839.00	0.42	
2840.50	0.42	
2842.00	0.42	
2843.50	0.42	
2845.00	0.42	
2846.50	0.41	
2848.00	0.41	
2849.50	0.41	
2851.00	0.41	
2852.50	0.41	
2854.00	0.41	
2855.50	0.41	
2857.00	0.41	
2858.50	0.41	
2860.00	0.41	
2861.50	0.41	
2863.00	0.41	
2864.50	0.41	
2866.00	0.41	
2867.50	0.41	
2869.00	0.41	
2870.50	0.41	
2872.00	0.41	
2873.50	0.41	
2875.00	0.41	
2876.50	0.41	
2878.00	0.41	
2879.50	0.41	
2881.00	0.41	
2882.50	0.41	
2884.00	0.41	
2885.50	0.41	
2887.00	0.41	
2888.50	0.41	
2890.00	0.41	
2891.50	0.41	
2893.00	0.41	
2894.50	0.41	
2896.00	0.41	
2897.50	0.41	
2899.00	0.41	
2900.50	0.41	
2902.00	0.41	
2903.50	0.41	
2905.00	0.41	
2906.50	0.41	
2908.00	0.41	
2909.50	0.41	
2911.00	0.41	
2912.50	0.41	
2914.00	0.41	
2915.50	0.41	
2917.00	0.41	
2918.50	0.41	
2920.00	0.41	
2921.50	0.41	
2923.00	0.41	
2924.50	0.41	
2926.00	0.41	
2927.50	0.40	
2929.00	0.40	
2930.50	0.40	
2932.00	0.40	
2933.50	0.40	
2935.00	0.40	
2936.50	0.40	
2938.00	0.40	
2939.50	0.40	
2941.00	0.40	
2942.50	0.40	
2944.00	0.40	
2945.50	0.40	
2947.00	0.40	
2948.50	0.40	
2950.00	0.40	
2951.50	0.40	
2953.00	0.40	
2954.50	0.40	
2956.00	0.40	
2957.50	0.40	
2959.00	0.40	
2960.50	0.40	
2962.00	0.40	
2963.50	0.40	
2965.00	0.40	
2966.50	0.40	
2968.00	0.40	
2969.50	0.40	
2971.00	0.40	
2972.50	0.40	
2974.00	0.40	
2975.50	0.40	
2977.00	0.40	
2978.50	0.40	
2980.00	0.40	
2981.50	0.40	
2983.00	0.40	
2984.50	0.40	
2986.00	0.40	
2987.50	0.40	
2989.00	0.40	
2990.50	0.40	
2992.00	0.40	
2993.50	0.40	
2995.00	0.40	
2996.50	0.40	
2998.00	0.40	
2999.50	0.40	
3001.00	0.40	
3002.50	0.40	
3004.00	0.40	
3005.50	0.40	
3007.00	0.40	
3008.50	0.40	
3010.00	0.40	
3011.50	0.39	
3013.00	0.39	
3014.50	0.39	
3016.00	0.39	
3017.50	0.39	
3019.00	0.39	
3020.50	0.39	
3022.00	0.39	
3023.50	0.39	
3025.00	0.39	
3026.50	0.39	
3028.00	0.39	
3029.50	0.39	
3031.00	0.39	
3032.50	0.39	
3034.00	0.39	
3035.50	0.39	
3037.00	0.39	
3038.50	0.39	
3040.00	0.39	
3041.50	0.39	
3043.00	0.39	
3044.50	0.39	
3046.00	0.39	
3047.50	0.39	
3049.00	0.39	
3050.50	0.39	
3052.00	0.39	
3053.50	0.39	
3055.00	0.39	
3056.50	0.39	
3058.00	0.39	
3059.50	0.39	
3061.00	0.39	
3062.50	0.39	
3064.00	0.39	
3065.50	0.39	
3067.00	0.39	
3068.50	0.39	
3070.00	0.39	
3071.50	0.39	
3073.00	0.39	
3074.50	0.39	
3076.00	0.39	
3077.50	0.39	
3079.00	0.39	
3080.50	0.39	
3082.00	0.39	
3083.50	0.39	
3085.00	0.39	
3086.50	0.39	
3088.00	0.39	
3089.50	0.39	
3091.00	0.39	
3092.50	0.39	
3094.00	0.39	
3095.50	0.38	
3097.00	0.38	
3098.50	0.38	
3100.00	0.38	
3101.50	0.38	
3103.00	0.38	
3104.50	0.38	
3106.00	0.38	
3107.50	0.38	
3109.00	0.38	
3110.50	0.38	
3112.00	0.38	
3113.50	0.38	
3115.00	0.38	
3116.50	0.38	
3118.00	0.38	
3119.50	0.38	
3121.00	0.38	
3122.50	0.38	
3124.00	0.38	
3125.50	0.38	
3127.00	0.38	
3128.50	0.38	
3130.00	0.38	
3131.50	0.38	
3133.00	0.38	
3134.50	0.38	
3136.00	0.38	
3137.50	0.38	
3139.00	0.38	
3140.50	0.38	
3142.00	0.38	
3143.50	0.38	
3145.00	0.38	
3146.50	0.38	
3148.00	0.38	
3149.50	0.38	
3151.00	0.38	
3152.50	0.38	
3154.00	0.38	
3155.50	0.38	
3157.00	0.38	
3158.50	0.38	
3160.00	0.38	
3161.50	0.38	
3163.00	0.38	
3164.50	0.38	
3166.00	0.38	
3167.50	0.38	
3169.00	0.38	
3170.50	0.38	
3172.00	0.38	
3173.50	0.38	
3175.00	0.38	
3176.50	0.38	
3178.00	0.38	
3179.50	0.38	
3181.00	0.38	
3182.50	0.38	
3184.00	0.37	
3185.50	0.37	
3187.00	0.37	
3188.50	0.37	
3190.00	0.37	
3191.50	0.37	
3193.00	0.37	
3194.50	0.37	
3196.00	0.37	
3197.50	0.37	
3199.00	0.37	
3200.50	0.37	
3202.00	0.37	
3203.50	0.37	
3205.00	0.37	
3206.50	0.37	
3208.00	0.37	
3209.50	0.37	
3211.00	0.37	
3212.50	0.37	
3214.00	0.37	
3215.50	0.37	
3217.00	0.37	
3218.50	0.37	
3220.00	0.37	
3221.50	0.37	
3223.00	0.37	
3224.50	0.37	
3226.00	0.37	
3227.50	0.37	
3229.00	0.37	
3230.50	0.37	
3232.00	0.37	
3233.50	0.37	
3235.00	0.37	
3236.50	0.37	
3238.00	0.37	
3239.50	0.37	
3241.00	0.37	
3242.50	0.37	
3244.00	0.37	
3245.50	0.37	
3247.00	0.37	
3248.50	0.37	
3250.00	0.37	
3251.50	0.37	
3253.00	0.37	
3254.50	0.37	
3256.00	0.37	
3257.50	0.37	
3259.00	0.37	
3260.50	0.37	
3262.00	0.37	
3263.50	0.37	
3265.00	0.37	
3266.50	0.37	
3268.00	0.37	
3269.50	0.37	
3271.00	0.37	
3272.50	0.37	
3274.00	0.36	
3275.50	0.36	
3277.00	0.36	
3278.50	0.36	
3280.00	0.36	
3281.50	0.36	
3283.00	0.36	
3284.50	0.36	
3286.00	0.36	
3287.50	0.36	
3289.00	0.36	
3290.50	0.36	
3292.00	0.36	
3293.50	0.36	
3295.00	0.36	
3296.50	0.36	
3298.00	0.36	
3299.50	0.36	
3301.00	0.36	
3302.50	0.36	
3304.00	0.36	
3305.50	0.36	
3307.00	0.36	
3308.50	0.36	
3310.00	0.36	
3311.50	0.36	
3313.00	0.36	
3314.50	0.36	
3316.00	0.36	
3317.50	0.36	
3319.00	0.36	
3320.50	0.36	
3322.00	0.36	
3323.50	0.36	
3325.00	0.36	
3326.50	0.36	
3328.00	0.36	
3329.50	0.36	
3331.00	0.36	
3332.50	0.36	
3334.00	0.36	
3335.50	0.36	
3337.00	0.36	
3338.50	0.36	
3340.00	0.36	
3341.50	0.36	
3343.00	0.36	
3344.50	0.36	
3346.00	0.36	
3347.50	0.36	
3349.00	0.36	
3350.50	0.36	
3352.00	0.36	
3353.50	0.36	
3355.00	0.36	
3356.50	0.36	
3358.00	0.36	
3359.50	0.36	
3361.00	0.36	
3362.50	0.36	
3364.00	0.36	
3365.50	0.36	
3367.00	0.36	
3368.50	0.35	
3370.00	0.35	
3371.50	0.35	
3373.00	0.35	
3374.50	0.35	
3376.00	0.35	
3377.50	0.35	
3379.00	0.35	
3380.50	0.35	
3382.00	0.35	
3383.50	0.35	
3385.00	0.35	
3386.50	0.35	
3388.00	0.35	
3389.50	0.35	
3391.00	0.35	
3392.50	0.35	
3394.00	0.35	
3395.50	0.35	
3397.00	0.35	
3398.50	0.35	
3400.00	0.35	
3401.50	0.35	
3403.00	0.35	
3404.50	0.35	
3406.00	0.35	
3407.50	0.35	
3409.00	0.35	
3410.50	0.35	
3412.00	0.35	
3413.50	0.35	
3415.00	0.35	
3416.50	0.35	
3418.00	0.35	
3419.50	0.35	
3421.00	0.35	
3422.50	0.35	
3424.00	0.35	
3425.50	0.35	
3427.00	0.35	
3428.50	0.35	
3430.00	0.35	
3431.50	0.35	
3433.00	0.35	
3434.50	0.35	
3436.00	0.35	
3437.50	0.35	
3439.00	0.35	
3440.50	0.35	
3442.00	0.35	
3443.50	0.35	
3445.00	0.35	
3446.50	0.35	
3448.00	0.35	
3449.50	0.35	
3451.00	0.35	
3452.50	0.35	
3454.00	0.35	
3455.50	0.35	
3457.00	0.35	
3458.50	0.35	
3460.00	0.35	
3461.50	0.35	
3463.00	0.35	
3464.50	0.35	
3466.00	0.35	
3467.50	0.34	
3469.00	0.34	
3470.50	0.34	
3472.00	0.34	
3473.50	0.34	
3475.00	0.34	
3476.50	0.34	
3478.00	0.34	
3479.50	0.34	
3481.00	0.34	
3482.50	0.34	
3484.00	0.34	
3485.50	0.34	
3487.00	0.34	
3488.50	0.34	
3490.00	0.34	
3491.50	0.34	
3493.00	0.34	
3494.50	0.34	
3496.00	0.34	
3497.50	0.34	
3499.00	0.34	
3500.50	0.34	
3502.00	0.34	
3503.50	0.34	
3505.00	0.34	
3506.50	0.34	
3508.00	0.34	
3509.50	0.34	
3511.00	0.34	
3512.50	0.34	
3514.00	0.34	
3515.50	0.34	
3517.00	0.34	
3518.50	0.34	
3520.00	0.34	
3521.50	0.34	
3523.00	0.34	
3524.50	0.34	
3526.00	0.34	
3527.50	0.34	
3529.00	0.34	
3530.50	0.34	
3532.00	0.34	
3533.50	0.34	
3535.00	0.34	
3536.50	0.34	
3538.00	0.34	
3539.50	0.34	
3541.00	0.34	
3542.50	0.34	
3544.00	0.34	
3545.50	0.34	
3547.00	0.34	
3548.50	0.34	
3550.00	0.34	
3551.50	0.34	
3553.00	0.34	
3554.50	0.34	
3556.00	0.34	
3557.50	0.34	
3559.00	0.34	
3560.50	0.34	
3562.00	0.34	
3563.50	0.34	
3565.00	0.34	
3566.50	0.34	
3568.00	0.34	
3569.50	0.34	
3571.00	0.33	
3572.50	0.33	
3574.00	0.33	
3575.50	0.33	
3577.00	0.33	
3578.50	0.33	
3580.00	0.33	
3581.50	0.33	
3583.00	0.33	
3584.50	0.33	
3586.00	0.33	
3587.50	0.33	
3589.00	0.33	
3590.50	0.33	
3592.00	0.33	
3593.50	0.33	
3595.00	0.33	
3596.50	0.33	
3598.00	0.33	
3599.50	0.33	
3601.00	0.33	
3602.50	0.33	
3604.00	0.33	
3605.50	0.33	
3607.00	0.33	
3608.50	0.33	
3610.00	0.33	
3611.50	0.33	
3613.00	0.33	
3614.50	0.33	
3616.00	0.33	
3617.50	0.33	
3619.00	0.33	
3620.50	0.33	
3622.00	0.33	
3623.50	0.33	
3625.00	0.33	
3626.50	0.33	
3628.00	0.33	
3629.50	0.33	
3631.00	0.33	
3632.50	0.33	
3634.00	0.33	
3635.50	0.33	
3637.00	0.33	
3638.50	0.33	
3640.00	0.33	
3641.50	0.33	
3643.00	0.33	
3644.50	0.33	
3646.00	0.33	
3647.50	0.33	
3649.00	0.33	
3650.50	0.33	
3652.00	0.33	
3653.50	0.33	
3655.00	0.33	
3656.50	0.33	
3658.00	0.33	
3659.50	0.33	
3661.00	0.33	
3662.50	0.33	
3664.00	0.33	
3665.50	0.33	
3667.00	0.33	
3668.50	0.33	
3670.00	0.33	
3671.50	0.33	
3673.00	0.33	
3674.50	0.33	
3676.00	0.33	
3677.50	0.33	
3679.00	0.32	
3680.50	0.32	
3682.00	0.32	
3683.50	0.32	
3685.00	0.32	
3686.50	0.32	
3688.00	0.32	
3689.50	0.32	
3691.00	0.32	
3692.50	0.32	
3694.00	0.32	
3695.50	0.32	
3697.00	0.32	
3698.50	0.32	
3700.00	0.32	
3701.50	0.32	
3703.00	0.32	
3704.50	0.32	
3706.00	0.32	
3707.50	0.32	
3709.00	0.32	
3710.50	0.32	
3712.00	0.32	
3713.50	0.32	
3715.00	0.32	
3716.50	0.32	
3718.00	0.32	
3719.50	0.32	
3721.00	0.32	
3722.50	0.32	
3724.00	0.32	
3725.50	0.32	
3727.00	0.32	
3728.50	0.32	
3730.00	0.32	
3731.50	0.32	
3733.00	0.32	
3734.50	0.32	
3736.00	0.32	
3737.50	0.32	
3739.00	0.32	
3740.50	0.32	
3742.00	0.32	
3743.50	0.32	
3745.00	0.32	
3746.50	0.32	
3748.00	0.32	
3749.50	0.32	
3751.00	0.32	
3752.50	0.32	
3754.00	0.32	
3755.50	0.32	
3757.00	0.32	
3758.50	0.32	
3760.00	0.32	
3761.50	0.32	
3763.00	0.32	
3764.50	0.32	
3766.00	0.32	
3767.50	0.32	
3769.00	0.32	
3770.50	0.32	
3772.00	0.32	
3773.50	0.32	
3775.00	0.32	
3776.50	0.32	
3778.00	0.32	
3779.50	0.32	
3781.00	0.32	
3782.50	0.32	
3784.00	0.32	
3785.50	0.32	
3787.00	0.32	
3788.50	0.32	
3790.00	0.32	
3791.50	0.32	
3793.00	0.31	
3794.50	0.31	
3796.00	0.31	
3797.50	0.31	
3799.00	0.31	
3800.50	0.31	
3802.00	0.31	
3803.50	0.31	
3805.00	0.31	
3806.50	0.31	
3808.00	0.31	
3809.50	0.31	
3811.00	0.31	
3812.50	0.31	
3814.00	0.31	
3815.50	0.31	
3817.00	0.31	
3818.50	0.31	
3820.00	0.31	
3821.50	0.31	
3823.00	0.31	
3824.50	0.31	
3826.00	0.31	
3827.50	0.31	
3829.00	0.31	
3830.50	0.31	
3832.00	0.31	
3833.50	0.31	
3835.00	0.31	
3836.50	0.31	
3838.00	0.31	
3839.50	0.31	
3841.00	0.31	
3842.50	0.31	
3844.00	0.31	
3845.50	0.31	
3847.00	0.31	
3848.50	0.31	
3850.00	0.31	
3851.50	0.31	
3853.00	0.31	
3854.50	0.31	
3856.00	0.31	
3857.50	0.31	
3859.00	0.31	
3860.50	0.31	
3862.00	0.31	
3863.50	0.31	
3865.00	0.31	
3866.50	0.31	
3868.00	0.31	
3869.50	0.31	
3871.00	0.31	
3872.50	0.31	
3874.00	0.31	
3875.50	0.31	
3877.00	0.31	
3878.50	0.31	
3880.00	0.31	
3881.50	0.31	
3883.00	0.31	
3884.50	0.31	
3886.00	0.31	
3887.50	0.31	
3889.00	0.31	
3890.50	0.31	
3892.00	0.31	
3893.50	0.31	
3895.00	0.31	
3896.50	0.31	
3898.00	0.31	
3899.50	0.31	
3901.00	0.31	
3902.50	0.31	
3904.00	0.31	
3905.50	0.31	
3907.00	0.31	
3908.50	0.31	
3910.00	0.31	
3911.50	0.31	
3913.00	0.30	
3914.50	0.30	
3916.00	0.30	
3917.50	0.30	
3919.00	0.30	
3920.50	0.30	
3922.00	0.30	
3923.50	0.30	
3925.00	0.30	
3926.50	0.30	
3928.00	0.30	
3929.50	0.30	
3931.00	0.30	
3932.50	0.30	
3934.00	0.30	
3935.50	0.30	
3937.00	0.30	
3938.50	0.30	
3940.00	0.30	
3941.50	0.30	
3943.00	0.30	
3944.50	0.30	
3946.00	0.30	
3947.50	0.30	
3949.00	0.30	
3950.50	0.30	
3952.00	0.30	
3953.50	0.30	
3955.00	0.30	
3956.50	0.30	
3958.00	0.30	
3959.50	0.30	
3961.00	0.30	
3962.50	0.30	
3964.00	0.30	
3965.50	0.30	
3967.00	0.30	
3968.50	0.30	
3970.00	0.30	
3971.50	0.30	
3973.00	0.30	
3974.50	0.30	
3976.00	0.30	
3977.50	0.30	
3979.00	0.30	
3980.50	0.30	
3982.00	0.30	
3983.50	0.30	
3985.00	0.30	
3986.50	0.30	
3988.00	0.30	
3989.50	0.30	
3991.00	0.30	
3992.50	0.30	
3994.00	0.30	
3995.50	0.30	
3997.00	0.30	
3998.50	0.30	
4000.00	0.30	
